tgt_test02_2019-05-13_13.04.36, 8um, 128 pixels, Left.wsf

Pixels in X: 	128
Lines in Y: 	128
X Range: 	8.000
Y Range: 	8.000
Z-Drive Calibration: 	1.0000
Z-Sense Calibration: 	1.9316
X Calibration: 	0.5952
Y Calibration: 	0.5940
X Offset: 	25.000
Y Offset: 	25.000
Rotation(°): 	0
Scan Rate(Hz): 	0.25
Scan Type: 	Vibrating
Vpp: 	0.597
Phase: 	86.51
Demod Gain : 	34dB
Selected (kHz) : 	149.24
Display Type: 	Z_DRIVE
Samples/Pixel: 	25
XY HV Gain: 	15
Z HV Gain: 	15
Z Sensor Gain: 	640
X GPID: 	100.000000000 %, 256, 4096, 0
Y GPID: 	100.000000000 %, 256, 4096, 0
Z GPID: 	1.0000, 100, 1000, 0
Setpoint: 	452





-12484.7407	-12488.3626	-12492.8816	-12497.4664	-12499.3265	-12506.2528	-12506.8547	-12512.3913	-12513.2558	-12515.1378	-12515.2253	-12515.4442	-12514.6016	-12511.6582	-12505.8152	-12497.1162	-12485.2331	-12457.3308	-12404.8855	-12331.2453	-12347.9429	-12284.1944	-12279.5769	-12274.5654	-12398.6704	-12565.7339	-12579.7289	-12588.3621	-12594.2927	-12601.9522	-12607.3466	-12611.7454	-12615.4438	-12619.2516	-12622.8734	-12627.4472	-12632.3383	-12637.2513	-12640.9060	-12645.6986	-12648.5326	-12652.1873	-12655.4152	-12659.6279	-12661.8600	-12666.7840	-12670.2526	-12675.9644	-12679.8707	-12683.3065	-12688.1210	-12691.8851	-12696.4808	-12698.9756	-12702.8600	-12706.9086	-12710.7164	-12714.7978	-12717.4895	-12721.2864	-12724.6128	-12728.6833	-12732.9069	-12736.7148	-12741.5402	-12745.1620	-12749.1340	-12753.8610	-12757.8877	-12762.1222	-12765.8973	-12770.3288	-12773.0862	-12777.9335	-12780.9754	-12785.5821	-12787.8799	-12790.8561	-12792.8585	-12795.9989	-12796.8086	-12798.1545	-12796.7867	-12795.4846	-12795.1564	-12777.0801	-12758.3910	-12675.3844	-12453.0634	-12407.8398	-12458.3484	-12535.1618	-12605.8913	-12738.1810	-12839.1326	-12849.4290	-12853.6636	-12863.3911	-12868.4026	-12875.9089	-12880.7015	-12884.7391	-12890.9433	-12895.1012	-12900.1784	-12904.8944	-12906.1965	-12911.0438	-12913.1776	-12918.3313	-12921.9750	-12926.6582	-12929.7329	-12934.8757	-12936.9000	-12940.7625	-12943.1041	-12945.9928	-12949.6912	-12952.6456	-12956.9568	-12959.6704	-12963.2375	-12964.0582	-12963.8503	-12963.0953	-12963.2485	-12961.0382
-12475.1555	-12478.6460	-12482.5414	-12486.6556	-12490.2884	-12493.1552	-12498.2214	-12501.1538	-12505.0492	-12506.2857	-12508.0473	-12508.3975	-12509.7652	-12507.3252	-12505.1149	-12501.8651	-12497.5539	-12489.5662	-12483.8763	-12446.1480	-12437.8977	-12459.1800	-12480.1122	-12426.9556	-12448.6538	-12520.4338	-12565.7777	-12576.5775	-12583.7336	-12587.5087	-12595.5620	-12600.2781	-12600.0702	-12605.3552	-12614.1964	-12618.2668	-12624.1537	-12627.6551	-12629.9858	-12635.1614	-12638.9692	-12640.3042	-12645.3922	-12649.3314	-12654.8352	-12658.5337	-12662.2102	-12665.0332	-12669.7274	-12674.8373	-12679.2142	-12684.0287	-12686.8080	-12690.0249	-12693.0012	-12698.9756	-12700.5622	-12707.6526	-12710.5741	-12714.2507	-12717.0190	-12721.5928	-12724.6128	-12728.5957	-12733.2352	-12737.7871	-12741.1901	-12744.7244	-12750.4799	-12753.1169	-12757.7892	-12761.3563	-12767.2650	-12769.5738	-12774.5196	-12777.2114	-12780.6034	-12783.4702	-12785.8994	-12787.4641	-12789.7619	-12789.8823	-12789.5321	-12786.9170	-12781.1067	-12674.1370	-12423.6621	-12246.9148	-12128.0401	-12175.5068	-12238.7301	-12248.6655	-12327.8205	-12571.2159	-12774.5415	-12840.6754	-12848.4114	-12856.4429	-12863.8945	-12869.7485	-12874.9241	-12880.4170	-12885.2643	-12890.2320	-12895.6702	-12897.3772	-12902.2027	-12904.8616	-12908.3959	-12912.0833	-12917.8389	-12921.7780	-12926.3518	-12929.2296	-12933.4204	-12936.1012	-12938.5303	-12942.2616	-12945.2706	-12949.3958	-12951.3107	-12955.4468	-12957.3398	-12960.8740	-12960.1409	-12961.3993	-12960.8303	-12962.1324
-12470.4941	-12474.3129	-12478.4709	-12481.1298	-12486.4367	-12490.2227	-12494.5448	-12498.3527	-12501.3727	-12504.7538	-12505.9902	-12508.8242	-12508.9227	-12509.3385	-12507.6534	-12506.4498	-12503.6267	-12504.7538	-12500.9678	-12508.2881	-12506.7343	-12504.1957	-12531.3868	-12541.5957	-12550.0102	-12557.8338	-12566.4233	-12571.4019	-12577.1356	-12584.4668	-12590.8898	-12596.3170	-12600.5954	-12605.3114	-12609.3053	-12612.4456	-12618.2559	-12623.5956	-12626.5500	-12631.1019	-12633.7936	-12636.2665	-12641.1029	-12646.3004	-12649.3970	-12653.2267	-12656.0279	-12660.8424	-12664.8472	-12669.9134	-12673.4149	-12677.1352	-12682.4093	-12687.1909	-12691.4365	-12694.0735	-12698.1877	-12702.1925	-12707.7292	-12710.3115	-12714.5242	-12718.1023	-12723.4749	-12726.1119	-12731.0686	-12734.4497	-12739.4284	-12742.1420	-12747.4052	-12750.3923	-12754.4628	-12758.3254	-12764.1356	-12767.2541	-12770.7227	-12775.4169	-12777.0254	-12781.3803	-12783.3061	-12784.7505	-12784.8818	-12785.9979	-12783.5468	-12774.3664	-12632.0210	-12374.9151	-12183.5930	-12100.7944	-12090.3885	-12052.5836	-12045.1758	-12059.5756	-12170.5938	-12310.7290	-12540.1733	-12793.9965	-12846.9780	-12855.0314	-12860.9073	-12868.4682	-12874.3004	-12878.9945	-12883.6777	-12887.7372	-12891.7639	-12895.2873	-12898.7231	-12902.9139	-12905.9996	-12909.3150	-12912.8821	-12917.8826	-12921.1434	-12926.1549	-12928.7372	-12931.8994	-12935.1602	-12938.6835	-12942.4695	-12945.7521	-12949.1551	-12952.2189	-12954.7903	-12955.7641	-12958.9045	-12960.7318	-12962.6357	-12963.0843
-12467.6492	-12472.4309	-12475.8558	-12480.3639	-12484.8283	-12488.8768	-12492.7284	-12496.4487	-12499.7642	-12501.7447	-12506.5483	-12507.8066	-12508.9336	-12509.0650	-12510.0607	-12509.7652	-12510.5312	-12512.3038	-12513.2011	-12517.5669	-12522.3815	-12528.1151	-12536.7046	-12543.9264	-12550.5682	-12560.2301	-12565.5808	-12572.3648	-12577.3544	-12583.4601	-12588.2746	-12592.6624	-12597.3894	-12603.0245	-12606.6792	-12609.7758	-12615.2249	-12619.3829	-12622.8187	-12627.5348	-12631.7475	-12632.3274	-12637.1419	-12640.7528	-12644.8342	-12647.8323	-12650.7320	-12654.2772	-12660.2078	-12664.3767	-12667.1451	-12671.9596	-12675.6361	-12682.4749	-12688.1757	-12690.8456	-12694.3252	-12698.6035	-12703.4618	-12707.3025	-12711.8763	-12716.4938	-12722.0196	-12725.2365	-12728.3441	-12732.4911	-12737.2290	-12741.6168	-12744.0241	-12749.0465	-12752.2963	-12755.1303	-12759.8682	-12763.7854	-12767.3854	-12771.9045	-12775.7780	-12778.6995	-12781.5225	-12781.0958	-12782.4636	-12781.8399	-12781.0192	-12774.1257	-12593.7128	-12359.8917	-12105.3681	-12044.5302	-12017.9519	-12004.9309	-12005.2591	-12022.0224	-12094.8090	-12196.4500	-12418.9242	-12629.9420	-12808.8230	-12852.3068	-12857.7560	-12864.9558	-12871.9697	-12876.8170	-12880.0887	-12883.4151	-12888.9956	-12891.9499	-12896.0860	-12899.1498	-12904.1066	-12905.8135	-12910.3654	-12913.0900	-12918.3422	-12921.2528	-12925.5749	-12928.0369	-12932.1839	-12936.1887	-12939.0337	-12942.4257	-12946.6712	-12950.1946	-12952.2626	-12953.6085	-12956.4972	-12959.0577	-12961.3446	-12963.1828
-12464.3338	-12468.2401	-12473.4266	-12477.0156	-12482.2788	-12487.1261	-12490.4634	-12494.1837	-12496.3284	-12500.8803	-12503.7471	-12506.3075	-12507.7628	-12509.9403	-12510.7172	-12511.9537	-12513.1792	-12516.1226	-12518.2125	-12522.8629	-12528.7388	-12533.1047	-12539.5277	-12545.2942	-12552.5050	-12557.6040	-12565.5479	-12570.0232	-12575.6803	-12582.1361	-12585.3531	-12590.0472	-12595.0040	-12599.1073	-12604.7534	-12606.5150	-12610.9904	-12615.6517	-12618.1246	-12622.9719	-12624.9743	-12627.4144	-12629.3074	-12634.7675	-12637.9188	-12640.8403	-12642.0768	-12648.3356	-12652.7781	-12659.1574	-12661.6084	-12668.6332	-12671.7736	-12677.9668	-12681.8512	-12688.3508	-12692.2571	-12696.9950	-12700.2339	-12704.7201	-12709.0641	-12712.7954	-12718.7150	-12722.0633	-12727.1514	-12728.6723	-12734.0230	-12736.8789	-12741.1901	-12746.1687	-12749.9218	-12752.1431	-12756.6293	-12761.2250	-12765.0985	-12769.0048	-12772.0139	-12774.8916	-12777.2661	-12779.5639	-12779.4217	-12779.9359	-12776.3251	-12773.1300	-12755.4257	-12653.9489	-12374.2586	-12133.0406	-12064.7949	-12010.5879	-12005.8062	-12008.2901	-12067.5742	-12137.1986	-12316.9003	-12539.2651	-12786.8732	-12845.2711	-12853.1822	-12861.0167	-12867.7789	-12873.5673	-12877.8237	-12880.0450	-12884.7719	-12890.5603	-12894.0289	-12896.6113	-12901.3929	-12903.6580	-12907.0500	-12910.4749	-12913.8778	-12918.9769	-12921.3732	-12925.1154	-12929.4594	-12933.8034	-12937.0422	-12939.9528	-12942.9619	-12944.8767	-12947.9624	-12950.0742	-12952.7769	-12955.9720	-12959.8345	-12961.5962
-12459.1800	-12464.8043	-12468.3276	-12473.5251	-12477.3548	-12482.1365	-12484.6532	-12489.2051	-12492.8269	-12497.1709	-12499.7970	-12501.4493	-12504.2504	-12506.5702	-12509.4370	-12511.1658	-12514.2843	-12516.0241	-12520.5870	-12525.3249	-12530.8506	-12535.6761	-12541.2675	-12545.6224	-12552.4940	-12556.9693	-12561.6197	-12569.0494	-12573.5685	-12578.1860	-12580.4839	-12586.5239	-12590.1895	-12594.2709	-12598.6258	-12602.9370	-12605.3880	-12608.7472	-12611.0998	-12615.5751	-12617.7307	-12619.5471	-12619.5471	-12623.2674	-12627.2393	-12630.6314	-12634.0344	-12638.7176	-12642.6567	-12648.2919	-12656.5094	-12658.3586	-12665.6132	-12671.7407	-12677.3978	-12682.3436	-12688.5915	-12691.6006	-12695.8789	-12699.5008	-12704.9171	-12708.2982	-12713.4410	-12716.8002	-12720.1703	-12725.9040	-12729.6243	-12733.3446	-12736.4084	-12741.9560	-12744.7462	-12748.2039	-12751.9461	-12754.8786	-12758.8396	-12763.4791	-12765.2079	-12768.0966	-12770.2960	-12772.8783	-12774.4868	-12773.9069	-12772.4625	-12768.7094	-12746.8362	-12675.8002	-12545.6443	-12322.1087	-12148.5346	-11996.1006	-11983.8893	-11990.7499	-12023.6746	-12086.6572	-12222.6562	-12404.3603	-12631.9554	-12834.0117	-12848.6631	-12857.6903	-12862.6471	-12867.8445	-12870.8427	-12875.0773	-12879.3009	-12884.2358	-12888.3172	-12892.7706	-12896.5347	-12898.8544	-12902.3887	-12904.7303	-12910.7156	-12913.7028	-12916.3070	-12920.5963	-12925.3780	-12928.8794	-12933.3766	-12936.4076	-12939.1212	-12940.6859	-12944.3515	-12946.1788	-12949.8882	-12952.8316	-12955.9282	-12958.8388
-12455.5692	-12460.5478	-12464.3009	-12470.6802	-12473.4376	-12478.5037	-12481.7098	-12483.8435	-12490.7042	-12493.9211	-12496.9302	-12499.4469	-12502.7185	-12505.5088	-12507.4455	-12510.3342	-12513.0150	-12516.1773	-12520.7839	-12525.8939	-12529.7455	-12534.6147	-12539.5824	-12545.2723	-12549.3865	-12555.4812	-12559.3875	-12565.0336	-12568.9619	-12573.4590	-12578.0875	-12581.3373	-12587.6728	-12591.4150	-12595.9888	-12597.8270	-12603.2324	-12604.9175	-12608.1673	-12609.4475	-12613.0256	-12613.2335	-12614.6012	-12616.7678	-12617.5775	-12621.7136	-12626.6485	-12630.5438	-12636.2228	-12642.8318	-12647.5588	-12652.1654	-12659.3215	-12666.7074	-12670.6575	-12677.0586	-12681.4464	-12688.3180	-12692.1805	-12695.8899	-12700.8576	-12705.5736	-12709.0532	-12713.1018	-12717.5661	-12722.6980	-12725.9696	-12728.9897	-12733.7604	-12736.9336	-12741.0806	-12743.2034	-12747.9085	-12750.4033	-12756.3120	-12759.4633	-12762.7022	-12763.8073	-12767.5495	-12770.2303	-12770.5258	-12771.9482	-12770.0990	-12765.8535	-12755.2397	-12686.1077	-12624.5913	-12506.6249	-12404.3165	-12036.9802	-11977.2584	-11979.1076	-12008.2901	-12108.9462	-12240.6997	-12368.9736	-12588.2418	-12818.5067	-12847.3500	-12852.9524	-12859.6161	-12863.6100	-12868.7637	-12871.3788	-12877.2000	-12880.0778	-12884.3014	-12888.6783	-12893.0660	-12894.9481	-12899.2155	-12901.2835	-12904.3473	-12908.2974	-12911.3393	-12916.1976	-12919.2832	-12924.0540	-12927.8837	-12930.3128	-12932.9499	-12936.5826	-12939.3510	-12942.9728	-12945.9600	-12949.6475	-12952.6347	-12956.5191
-12450.6452	-12456.2366	-12459.8366	-12467.9775	-12470.5379	-12474.9147	-12476.2934	-12482.3663	-12485.8021	-12491.0652	-12493.5163	-12497.2475	-12499.6876	-12504.0316	-12506.8765	-12509.4807	-12512.6649	-12516.3305	-12521.6155	-12525.0951	-12529.4829	-12533.1156	-12539.8559	-12543.7185	-12548.7190	-12551.9469	-12557.9870	-12560.6240	-12565.7777	-12569.5308	-12575.6475	-12578.9629	-12583.3835	-12586.8084	-12590.8679	-12594.4459	-12597.5754	-12601.4051	-12602.2805	-12604.5455	-12605.5412	-12605.4537	-12603.5607	-12604.7315	-12605.5959	-12607.4123	-12611.4609	-12616.7131	-12622.9610	-12630.1280	-12639.5163	-12645.1624	-12653.4128	-12658.9166	-12666.2588	-12671.0733	-12678.9625	-12681.3260	-12687.7162	-12692.2024	-12696.7324	-12700.9998	-12705.2016	-12708.6921	-12714.3273	-12719.2840	-12721.6913	-12726.3854	-12730.2918	-12733.6619	-12737.2181	-12741.8028	-12744.9323	-12747.9194	-12752.1431	-12756.6293	-12759.7150	-12763.3696	-12764.6280	-12767.2213	-12767.8340	-12768.6000	-12768.0529	-12765.5362	-12760.6560	-12748.3243	-12712.0732	-12666.6089	-12580.4401	-12507.0078	-12377.6616	-12266.8184	-12081.9740	-12110.5328	-12190.5303	-12373.0659	-12552.2424	-12756.2573	-12844.5708	-12848.7069	-12854.7469	-12858.3468	-12864.2118	-12866.5315	-12870.3612	-12874.7271	-12878.7976	-12882.7477	-12886.8290	-12889.4442	-12892.1031	-12897.0708	-12899.8173	-12903.2312	-12906.0761	-12910.7703	-12913.7903	-12918.7252	-12922.8394	-12926.4175	-12929.1749	-12931.9323	-12936.6374	-12939.1103	-12943.2135	-12945.7959	-12950.3368	-12953.2365
-12444.7365	-12451.0501	-12454.3546	-12460.7666	-12465.2638	-12467.8899	-12471.4023	-12475.1008	-12479.8824	-12484.2264	-12487.8483	-12490.3321	-12494.9934	-12498.9435	-12503.1562	-12505.0273	-12509.4151	-12512.8181	-12517.5998	-12521.7796	-12525.4233	-12529.6908	-12535.4353	-12540.1186	-12543.6310	-12547.9750	-12552.1111	-12556.9037	-12559.7267	-12566.3576	-12569.7606	-12574.6298	-12577.2231	-12580.6152	-12583.7555	-12587.5415	-12589.5877	-12592.7280	-12594.2490	-12594.6320	-12595.3432	-12595.3104	-12592.3451	-12590.1895	-12591.2618	-12586.7208	-12593.9426	-12598.4726	-12608.1235	-12616.6802	-12627.7645	-12634.1766	-12642.5254	-12650.7429	-12656.6407	-12664.5190	-12668.8739	-12674.7060	-12679.5096	-12685.2433	-12689.1167	-12693.9750	-12698.0564	-12703.9323	-12705.8909	-12712.6203	-12715.2902	-12719.7545	-12724.1533	-12728.3988	-12731.4407	-12735.8066	-12739.1548	-12742.5469	-12745.7310	-12748.6635	-12753.5546	-12757.4609	-12760.8311	-12760.8639	-12762.4286	-12763.0852	-12763.6104	-12761.5314	-12758.5770	-12753.3139	-12745.8623	-12732.0972	-12691.5787	-12667.2435	-12623.9239	-12577.8249	-12504.0754	-12363.3056	-12272.9022	-12325.8509	-12498.3308	-12695.2771	-12832.0749	-12844.1221	-12848.2473	-12852.5475	-12856.4320	-12859.5067	-12864.8355	-12869.5625	-12872.6809	-12875.4165	-12880.2419	-12881.9598	-12887.0369	-12890.5603	-12895.8344	-12897.1802	-12901.5461	-12905.0038	-12907.6846	-12912.7618	-12918.0577	-12920.7932	-12925.3780	-12928.7919	-12931.2648	-12934.6787	-12938.3990	-12942.7540	-12946.1788	-12950.9277
-12439.4077	-12443.0186	-12447.6690	-12452.6805	-12457.0901	-12460.8979	-12464.6292	-12469.6516	-12472.6497	-12477.3439	-12480.4077	-12484.5657	-12488.9206	-12494.3588	-12496.7223	-12500.8803	-12504.0973	-12508.3318	-12511.8880	-12516.1116	-12520.4119	-12524.2088	-12528.0385	-12532.9624	-12538.5429	-12540.9173	-12545.8850	-12549.0582	-12554.6059	-12558.4793	-12564.6835	-12566.5765	-12571.5661	-12574.6955	-12578.2517	-12580.6152	-12582.7707	-12585.1780	-12585.4953	-12586.3488	-12585.3421	-12585.8126	-12581.2607	-12578.1094	-12558.3371	-12546.8917	-12520.9918	-12555.9408	-12568.9071	-12599.9717	-12610.7277	-12623.1908	-12632.6228	-12642.6129	-12649.5830	-12656.3124	-12660.2734	-12668.2612	-12673.2398	-12679.1266	-12685.1010	-12687.9678	-12693.2528	-12695.8461	-12701.1968	-12705.5189	-12708.0794	-12713.0689	-12717.5880	-12723.0153	-12725.7617	-12730.9264	-12732.8850	-12738.1482	-12740.0411	-12743.9475	-12746.7815	-12751.7382	-12753.6421	-12756.8372	-12758.0190	-12758.9381	-12758.0518	-12758.0956	-12757.1327	-12755.1850	-12751.5303	-12749.9109	-12745.2496	-12728.0924	-12718.3540	-12693.2966	-12721.1989	-12760.7326	-12532.4700	-12440.5238	-12523.8258	-12653.2267	-12821.5815	-12837.2943	-12842.1963	-12845.2054	-12849.3962	-12854.2217	-12859.0799	-12862.5376	-12866.0719	-12870.0877	-12872.7466	-12877.4845	-12880.2966	-12884.9798	-12887.7810	-12891.5888	-12893.8320	-12898.8106	-12902.3887	-12907.2360	-12913.1776	-12914.9611	-12918.8018	-12922.7847	-12927.3804	-12930.4223	-12933.5189	-12938.1692	-12942.5023	-12945.8943
-12432.2954	-12436.7379	-12441.6290	-12446.6623	-12450.3826	-12453.4683	-12458.6439	-12461.4888	-12467.3975	-12468.9075	-12474.7397	-12478.4600	-12484.1499	-12488.6142	-12492.8597	-12495.0700	-12500.7490	-12504.7100	-12508.9446	-12511.6582	-12517.4794	-12520.6198	-12523.8367	-12528.6075	-12533.0828	-12536.3654	-12540.7422	-12546.3993	-12549.2880	-12553.8946	-12557.1882	-12561.6088	-12566.5984	-12570.3953	-12572.0256	-12573.9077	-12576.7964	-12579.9039	-12578.9629	-12579.9586	-12577.9344	-12575.3739	-12571.9490	-12531.3540	-12473.7439	-12424.8985	-12383.2311	-12391.0000	-12501.6134	-12566.3029	-12598.6586	-12614.7216	-12624.8868	-12633.5857	-12643.3461	-12652.1435	-12657.4285	-12664.6722	-12668.4253	-12675.7674	-12680.1442	-12684.5977	-12689.1824	-12693.2091	-12696.8528	-12701.4703	-12703.5165	-12709.5347	-12714.0537	-12717.7084	-12720.6190	-12724.2846	-12729.2741	-12733.0820	-12735.7081	-12738.9579	-12743.4551	-12746.0265	-12750.2063	-12752.9966	-12755.4585	-12755.4257	-12756.9029	-12756.8591	-12757.9096	-12756.5199	-12756.9685	-12756.4214	-12755.3272	-12760.1855	-12760.6122	-12766.6960	-12776.2266	-12786.7638	-12794.5546	-12803.4286	-12660.7768	-12700.0150	-12810.4643	-12831.9983	-12836.9332	-12841.6383	-12845.2163	-12850.4029	-12855.1189	-12857.7560	-12861.4106	-12863.9711	-12867.0677	-12871.1272	-12874.6505	-12877.5611	-12882.3647	-12884.0935	-12886.9275	-12893.3067	-12896.6550	-12900.7145	-12904.0956	-12908.4725	-12913.9326	-12917.3793	-12921.2966	-12925.6296	-12929.4594	-12935.4666	-12938.6835	-12942.0974
-12434.3087	-12439.7579	-12444.7037	-12448.7632	-12454.4531	-12457.1339	-12459.2348	-12464.0930	-12468.1307	-12473.9300	-12478.3068	-12481.8301	-12485.9334	-12491.1747	-12493.5491	-12497.6961	-12503.8237	-12508.6710	-12512.2491	-12517.3700	-12520.4775	-12524.7121	-12528.2902	-12531.5837	-12535.8840	-12540.6875	-12545.3926	-12549.7257	-12553.0411	-12555.7219	-12560.4489	-12564.2896	-12568.6226	-12572.0147	-12575.6037	-12577.2012	-12578.4924	-12580.1994	-12580.8778	-12579.6194	-12576.6651	-12541.1033	-12524.9091	-12404.8745	-12157.0913	-11969.0956	-12007.1849	-12111.4629	-12303.5181	-12496.3940	-12581.2389	-12614.3277	-12631.0472	-12638.8270	-12649.3751	-12658.2601	-12663.4576	-12669.2022	-12675.8878	-12680.3303	-12685.0463	-12689.9812	-12693.4936	-12696.1744	-12701.0108	-12704.6107	-12708.3967	-12712.9158	-12717.7303	-12720.1813	-12724.5472	-12727.5672	-12731.7033	-12735.3470	-12739.0017	-12741.5402	-12744.4180	-12748.5869	-12752.4166	-12755.8087	-12757.3843	-12759.4196	-12760.3277	-12762.7241	-12762.3301	-12764.2669	-12764.6170	-12765.9629	-12767.0790	-12770.1975	-12774.8698	-12781.7523	-12787.8689	-12792.6178	-12800.2882	-12805.9671	-12813.0685	-12818.1238	-12824.4373	-12831.0135	-12836.8457	-12839.2091	-12845.1726	-12848.1269	-12852.9086	-12857.0228	-12859.6818	-12861.3887	-12865.2732	-12868.8840	-12871.9259	-12875.6572	-12878.9836	-12880.6905	-12884.6406	-12888.2625	-12892.3986	-12897.4866	-12900.8896	-12906.2622	-12910.0372	-12915.5192	-12918.5720	-12923.0582	-12928.7044	-12932.2496	-12936.3747	-12939.7230
-12436.2236	-12442.0557	-12445.5790	-12450.1419	-12452.9868	-12458.3484	-12461.3247	-12466.5550	-12471.2163	-12476.2169	-12480.0028	-12484.1280	-12488.5923	-12492.6628	-12497.0177	-12500.4098	-12507.2923	-12510.7391	-12515.3457	-12518.0156	-12524.2307	-12528.1151	-12531.5837	-12534.9539	-12539.1119	-12543.7732	-12549.2989	-12553.9493	-12556.3566	-12559.3985	-12562.5826	-12567.0470	-12569.7169	-12575.3520	-12578.8535	-12579.9258	-12580.8997	-12582.5738	-12582.6285	-12581.4686	-12567.2877	-12348.6213	-12106.2982	-11909.9865	-11866.5903	-11834.4862	-11847.9887	-11862.1149	-12097.8400	-12359.6728	-12527.2507	-12607.6202	-12629.3730	-12640.8403	-12651.0055	-12660.0218	-12665.3177	-12671.0623	-12674.7826	-12680.6913	-12684.9697	-12690.0687	-12692.9355	-12698.5926	-12701.5032	-12705.9347	-12709.4909	-12714.6227	-12715.6950	-12720.4220	-12725.3131	-12729.2523	-12732.9945	-12736.0473	-12737.8418	-12742.1858	-12746.2234	-12749.4294	-12752.8543	-12755.4366	-12758.1940	-12760.2621	-12763.2055	-12764.2888	-12766.3131	-12768.4796	-12770.9525	-12771.7513	-12774.7713	-12777.9445	-12783.2623	-12789.3899	-12793.3072	-12798.0122	-12802.8049	-12808.4400	-12814.5019	-12819.6338	-12824.7218	-12829.3613	-12833.7381	-12839.5484	-12842.6121	-12847.9956	-12849.7354	-12854.7907	-12856.6727	-12859.4520	-12864.1571	-12866.7941	-12869.3217	-12871.7290	-12874.4098	-12876.8608	-12879.8918	-12882.5507	-12889.6521	-12889.3567	-12895.7359	-12900.6379	-12905.1570	-12911.0001	-12914.0857	-12919.5568	-12924.3822	-12928.3542	-12934.3395	-12937.7316
-12434.7245	-12437.7992	-12440.2940	-12446.7280	-12451.4002	-12454.2999	-12460.3618	-12465.4936	-12469.7939	-12476.4576	-12480.1888	-12484.3030	-12487.3778	-12492.8816	-12496.9411	-12502.8280	-12506.3075	-12511.7020	-12515.0065	-12519.1207	-12522.7097	-12528.1260	-12531.7807	-12535.7636	-12539.6262	-12542.6243	-12547.8984	-12553.4569	-12555.9408	-12559.2344	-12563.4142	-12566.4123	-12571.3363	-12572.9667	-12578.8207	-12579.3678	-12581.1404	-12581.3045	-12583.2960	-12579.7179	-12576.3478	-12385.9448	-12159.2797	-11874.3372	-11803.4436	-11777.0513	-11772.0617	-11794.1209	-11977.9040	-12165.1775	-12445.8635	-12567.7582	-12629.5372	-12640.2385	-12649.4298	-12657.1987	-12664.3767	-12669.9572	-12673.6009	-12681.2166	-12684.6414	-12690.0578	-12692.5526	-12697.8595	-12701.7877	-12703.3852	-12709.0751	-12711.8106	-12716.0452	-12719.8093	-12724.4487	-12727.7641	-12731.9768	-12734.3841	-12738.5640	-12741.3104	-12745.7967	-12748.7948	-12751.1583	-12754.7145	-12757.6798	-12760.8639	-12762.9976	-12765.7988	-12768.0747	-12771.1932	-12772.6048	-12775.7451	-12777.9117	-12781.6101	-12785.8337	-12791.3485	-12795.8238	-12799.2596	-12803.1222	-12809.6108	-12814.4035	-12819.6885	-12823.4088	-12827.2604	-12832.5454	-12837.4803	-12841.1131	-12844.9975	-12848.4005	-12852.2412	-12855.3815	-12857.4933	-12861.2246	-12863.6209	-12865.6999	-12868.2494	-12869.2561	-12873.1296	-12873.0092	-12875.8104	-12878.8523	-12885.0783	-12887.5512	-12895.2216	-12899.8720	-12906.3059	-12910.3217	-12914.9721	-12922.2048	-12927.2491	-12929.5469	-12935.1164
-12430.1179	-12433.0285	-12436.2236	-12441.8587	-12446.3231	-12452.6257	-12455.2081	-12462.8238	-12466.2596	-12473.1968	-12477.2892	-12481.8082	-12485.0471	-12490.8464	-12494.5120	-12499.6985	-12504.8085	-12508.2990	-12514.1202	-12515.9147	-12521.9109	-12524.7559	-12529.4829	-12532.6232	-12537.3721	-12539.8888	-12545.1410	-12550.6995	-12554.1025	-12557.0788	-12560.9851	-12565.3181	-12568.1303	-12571.6755	-12574.5751	-12577.5076	-12577.9453	-12579.6413	-12578.2736	-12577.4201	-12572.2664	-12503.3641	-12335.8301	-12068.4168	-11837.8892	-11776.1978	-11770.7268	-11780.2573	-11873.4400	-12124.0791	-12335.5893	-12546.8370	-12620.8382	-12635.9711	-12645.5126	-12653.1720	-12661.0284	-12664.9238	-12670.8873	-12677.2118	-12681.6433	-12686.0420	-12690.8784	-12695.4522	-12698.5488	-12702.6302	-12706.0004	-12709.8301	-12711.8981	-12719.2512	-12722.4791	-12725.7180	-12728.3222	-12731.7580	-12734.9421	-12739.1220	-12743.3128	-12746.2015	-12748.8386	-12752.0774	-12755.5570	-12760.0651	-12761.9362	-12764.6499	-12768.2060	-12769.2674	-12773.1081	-12776.2266	-12779.8375	-12783.5578	-12787.5407	-12790.8561	-12796.2943	-12801.0541	-12804.5556	-12807.6741	-12813.7251	-12817.9596	-12823.4963	-12827.5887	-12830.4117	-12835.3138	-12837.7539	-12841.9009	-12845.7416	-12849.4290	-12850.7859	-12854.4733	-12856.3882	-12858.5766	-12860.1085	-12863.3145	-12863.1613	-12862.2860	-12862.8550	-12864.3650	-12868.9388	-12870.7223	-12880.1763	-12886.3367	-12889.8162	-12897.4210	-12905.3102	-12910.6171	-12916.4821	-12921.2966	-12926.4284	-12931.7572
-12422.1192	-12424.9970	-12426.1350	-12430.3477	-12435.0418	-12438.8168	-12446.6076	-12452.2537	-12460.0226	-12464.9465	-12470.9865	-12475.8011	-12481.3049	-12485.7474	-12491.6123	-12496.4050	-12502.4997	-12505.9027	-12510.1044	-12513.7700	-12517.7530	-12522.9942	-12526.4519	-12531.4634	-12534.3849	-12538.5320	-12542.3398	-12546.2789	-12550.4041	-12554.9341	-12558.8842	-12562.8562	-12566.3467	-12569.9248	-12572.0366	-12574.6080	-12576.0195	-12577.3544	-12577.2231	-12574.7502	-12571.6208	-12546.0054	-12460.4384	-12306.5600	-12015.2602	-11877.2916	-11809.8009	-11779.4476	-11829.0480	-11998.9674	-12227.8756	-12501.4821	-12614.6341	-12635.3912	-12641.6500	-12650.3709	-12656.3343	-12662.9214	-12667.9001	-12673.2945	-12676.1285	-12682.9673	-12685.7904	-12691.0754	-12694.2923	-12697.8923	-12700.9561	-12703.5493	-12708.4623	-12713.0033	-12717.4677	-12720.4658	-12723.6390	-12726.0900	-12731.4407	-12734.7671	-12739.1767	-12742.1749	-12745.7310	-12748.3681	-12752.2744	-12755.0974	-12759.4633	-12761.2688	-12764.4857	-12767.8450	-12771.4996	-12774.8807	-12777.4849	-12781.4350	-12785.5930	-12790.3200	-12793.0117	-12799.2596	-12802.2140	-12806.7768	-12810.7926	-12815.8916	-12819.7213	-12824.3279	-12827.5668	-12830.7181	-12835.3138	-12838.8152	-12841.9665	-12845.0741	-12847.1640	-12849.2430	-12851.9348	-12853.1493	-12854.9548	-12855.6113	-12856.6618	-12853.5651	-12852.6351	-12851.4752	-12856.5961	-12863.8835	-12867.7789	-12877.7799	-12882.6820	-12891.0965	-12897.2787	-12906.2293	-12910.1685	-12917.0948	-12920.4650	-12925.2904
-12410.7833	-12412.4136	-12414.7552	-12419.4822	-12423.0821	-12429.9428	-12438.3026	-12444.0472	-12451.3783	-12458.4032	-12464.7058	-12470.3847	-12476.0308	-12480.9329	-12485.5176	-12493.0676	-12496.4378	-12501.8213	-12504.0863	-12508.2662	-12513.3542	-12518.7159	-12523.1146	-12526.0252	-12530.6208	-12534.6694	-12539.2870	-12542.0881	-12546.4321	-12549.5397	-12554.0369	-12556.1268	-12560.2957	-12564.4865	-12568.0755	-12569.8372	-12572.6493	-12573.4481	-12573.2840	-12572.3867	-12570.3296	-12563.6221	-12522.5675	-12459.6834	-12374.3790	-12242.2316	-12024.5609	-11853.5692	-11871.5580	-12000.5540	-12148.4143	-12418.7710	-12610.3995	-12630.3797	-12637.9078	-12644.6153	-12650.8195	-12657.2863	-12663.3044	-12666.6198	-12671.8502	-12675.1765	-12681.8184	-12685.9217	-12689.4450	-12691.8304	-12697.5312	-12699.1069	-12703.0898	-12707.4228	-12710.2678	-12714.4476	-12719.1527	-12721.7132	-12725.1599	-12729.5805	-12734.6795	-12736.9664	-12739.6035	-12743.9037	-12745.6982	-12751.0708	-12754.2440	-12757.5813	-12761.7283	-12765.7112	-12767.9872	-12773.7756	-12775.3622	-12778.7323	-12782.7590	-12786.6872	-12791.3376	-12795.3096	-12800.5946	-12804.6213	-12809.3701	-12812.7731	-12816.0995	-12820.1699	-12824.9735	-12826.7024	-12829.8974	-12832.8518	-12837.1302	-12839.5265	-12842.3058	-12844.0565	-12846.8905	-12847.0874	-12847.3172	-12846.8905	-12845.4680	-12841.4851	-12835.5436	-12836.0469	-12835.1496	-12848.8819	-12853.5214	-12863.3911	-12875.3727	-12881.6863	-12890.2649	-12900.5723	-12907.3783	-12912.8821	-12919.0753	-12923.5178
-12395.5519	-12393.9106	-12395.2017	-12402.4673	-12409.5030	-12416.4731	-12425.6317	-12432.4923	-12442.4168	-12448.7413	-12455.2737	-12462.4517	-12469.3015	-12474.2910	-12480.7359	-12486.4696	-12490.2446	-12493.7461	-12499.3703	-12502.8827	-12507.8941	-12512.2929	-12516.3743	-12518.6830	-12524.4386	-12528.4324	-12533.7612	-12534.8664	-12538.9368	-12542.7009	-12545.3270	-12550.7871	-12553.5992	-12558.6982	-12561.1054	-12565.3072	-12566.4671	-12567.8458	-12567.7582	-12567.8239	-12566.5437	-12564.5194	-12555.8970	-12529.1874	-12500.2675	-12435.9500	-12371.2386	-12271.5563	-12030.3931	-12046.0293	-12172.9464	-12283.1659	-12537.8098	-12623.8801	-12632.1195	-12639.1115	-12643.1491	-12652.3623	-12656.7392	-12660.8643	-12665.6679	-12668.6879	-12674.7607	-12679.2908	-12681.4792	-12687.6943	-12690.0468	-12694.6425	-12696.3276	-12700.0369	-12703.7244	-12708.2544	-12711.9747	-12716.0342	-12718.8135	-12722.7308	-12728.8255	-12730.4012	-12734.4279	-12737.2509	-12741.2229	-12744.1225	-12748.4009	-12753.0075	-12757.3624	-12761.0609	-12764.6389	-12769.1361	-12772.5391	-12775.7014	-12779.2685	-12783.0544	-12787.3875	-12790.5607	-12795.7254	-12799.4347	-12803.7349	-12807.2255	-12811.4382	-12813.8673	-12818.9335	-12823.1134	-12824.2623	-12828.7923	-12831.5169	-12835.8609	-12837.8742	-12838.8481	-12839.8766	-12839.6140	-12838.5198	-12834.1867	-12831.4074	-12826.5492	-12815.7822	-12783.6781	-12800.0365	-12813.6156	-12831.8342	-12851.3220	-12862.1766	-12876.1605	-12886.0522	-12894.2697	-12901.0209	-12907.2688	-12913.7247	-12919.9069
-12380.7801	-12366.0849	-12370.9651	-12376.1954	-12388.5490	-12398.8455	-12408.4417	-12417.6221	-12429.2535	-12434.8886	-12444.7693	-12453.6762	-12459.3004	-12465.3514	-12472.4747	-12476.7421	-12481.2940	-12485.9006	-12490.9777	-12495.0919	-12499.0311	-12503.1015	-12508.0583	-12512.0193	-12514.7658	-12519.5256	-12523.1036	-12527.3929	-12529.2312	-12533.1375	-12538.4006	-12541.5848	-12545.8960	-12549.3646	-12554.3323	-12557.1882	-12560.1863	-12560.3833	-12561.6088	-12561.1054	-12561.6744	-12559.8143	-12557.5055	-12552.9208	-12550.2728	-12532.1308	-12493.4834	-12457.5606	-12467.6711	-12254.7165	-12225.5887	-12340.7868	-12497.4007	-12614.3933	-12624.2084	-12631.1347	-12636.7699	-12643.8713	-12649.8238	-12653.9270	-12657.0127	-12662.1774	-12665.5475	-12670.5262	-12674.2684	-12678.8203	-12681.7090	-12684.8165	-12688.7666	-12691.3161	-12696.2400	-12699.4570	-12703.9104	-12708.4295	-12712.2155	-12715.8920	-12720.2360	-12724.1095	-12727.4578	-12731.8127	-12734.6248	-12738.6734	-12742.5359	-12747.0878	-12750.2282	-12754.2221	-12758.5442	-12763.5010	-12766.2693	-12770.8978	-12773.6224	-12777.8898	-12780.5378	-12785.5492	-12789.8604	-12794.2701	-12797.5855	-12802.7064	-12805.5623	-12810.5081	-12814.2612	-12817.5329	-12820.3231	-12822.7085	-12826.2209	-12829.2300	-12832.6877	-12833.0816	-12833.8038	-12832.3485	-12830.8603	-12826.3194	-12820.9140	-12768.1185	-12728.1252	-12680.7023	-12676.1832	-12708.1341	-12764.5404	-12823.6276	-12850.3263	-12867.7023	-12877.5392	-12888.0874	-12896.9286	-12903.7455	-12909.6323	-12916.8103
-12347.3521	-12325.9056	-12297.8830	-12304.9734	-12350.7879	-12364.6187	-12387.4110	-12403.0800	-12413.0811	-12428.0717	-12437.3397	-12445.4477	-12451.4440	-12459.4208	-12463.4912	-12469.6844	-12474.4114	-12480.2216	-12483.7450	-12487.3121	-12492.8488	-12496.2518	-12500.1800	-12503.0687	-12509.1197	-12511.7567	-12516.6150	-12519.3614	-12523.0708	-12527.3054	-12531.5181	-12534.9977	-12539.2651	-12542.3179	-12546.6838	-12550.6229	-12553.6101	-12554.6059	-12555.5688	-12557.2648	-12556.8709	-12557.3304	-12555.4484	-12556.3128	-12555.2077	-12553.5445	-12548.4564	-12547.8218	-12537.9083	-12569.7825	-12578.5033	-12408.6496	-12512.5226	-12609.9618	-12618.5951	-12624.6789	-12630.6095	-12637.0106	-12642.7880	-12645.3156	-12649.9660	-12653.3909	-12658.8400	-12663.2497	-12666.7183	-12670.4386	-12674.1042	-12678.3935	-12679.5753	-12683.3722	-12687.5192	-12691.8085	-12695.4850	-12700.3214	-12706.1207	-12708.0356	-12711.0228	-12716.3516	-12720.4439	-12725.0833	-12729.3617	-12732.9179	-12737.4916	-12740.3366	-12745.0964	-12748.6416	-12752.9747	-12757.9971	-12761.8596	-12765.3392	-12769.7708	-12772.6485	-12776.6643	-12780.3080	-12784.8380	-12788.9084	-12794.1388	-12796.5898	-12801.1198	-12805.6279	-12808.8230	-12812.4886	-12815.9463	-12818.7912	-12821.0015	-12823.8137	-12825.1048	-12826.8118	-12827.0963	-12824.8531	-12819.7323	-12813.8017	-12790.5169	-12711.0447	-12600.3547	-12516.1335	-12429.4614	-12457.6919	-12570.5594	-12733.1039	-12826.8993	-12855.7317	-12874.0378	-12880.2419	-12892.1469	-12897.6508	-12906.7327	-12911.4378
-12294.5347	-12244.2340	-12204.2188	-12191.4494	-12246.8273	-12304.9078	-12377.4209	-12393.6480	-12414.1534	-12424.3624	-12437.2521	-12444.2660	-12450.9407	-12456.0287	-12463.5131	-12469.2358	-12475.1226	-12480.0466	-12483.4933	-12487.8045	-12492.4877	-12496.0111	-12498.6590	-12502.7951	-12506.2091	-12511.0126	-12513.9998	-12519.0332	-12522.5018	-12527.7650	-12531.4634	-12535.9606	-12539.4839	-12542.8322	-12545.5021	-12550.0977	-12552.8770	-12554.6715	-12557.1663	-12557.7025	-12559.0155	-12558.8076	-12560.4270	-12561.1492	-12563.1297	-12565.2415	-12569.3448	-12572.0694	-12578.8863	-12586.6442	-12592.5311	-12598.5711	-12589.4016	-12609.7101	-12617.5884	-12622.9391	-12628.1366	-12633.4216	-12638.4987	-12643.0616	-12647.8542	-12651.9356	-12655.3933	-12661.7287	-12663.9719	-12667.9001	-12670.9529	-12674.3668	-12676.7194	-12679.9254	-12684.2256	-12687.8365	-12692.4978	-12693.9313	-12699.8619	-12702.7287	-12707.4009	-12710.0161	-12716.2640	-12721.9430	-12727.2280	-12729.1210	-12734.2637	-12738.0169	-12742.7001	-12746.3547	-12751.2021	-12755.4038	-12758.3144	-12762.7897	-12766.9149	-12771.2698	-12774.2789	-12778.6557	-12781.6648	-12785.8665	-12790.3856	-12794.9375	-12798.5156	-12802.4766	-12805.9452	-12810.6832	-12813.3640	-12816.1323	-12817.9706	-12820.2575	-12821.3626	-12822.5225	-12822.8070	-12818.7365	-12815.8478	-12796.5241	-12744.3523	-12608.7910	-12349.7374	-12266.6652	-12160.5709	-12227.4926	-12428.8705	-12666.3354	-12788.8209	-12847.5032	-12867.6366	-12879.8480	-12888.2077	-12896.1736	-12901.7321	-12908.9320
-12228.1382	-12114.8549	-11985.5743	-11948.8965	-12018.9258	-12117.2403	-12333.8167	-12389.7417	-12414.7333	-12430.9167	-12440.6004	-12449.4635	-12454.4421	-12462.3751	-12469.2796	-12473.8205	-12479.1931	-12484.4672	-12488.0343	-12491.3388	-12494.9059	-12499.4469	-12503.7580	-12506.6796	-12511.8114	-12514.5469	-12518.9347	-12522.2173	-12526.6489	-12530.7850	-12536.2888	-12538.0833	-12543.5434	-12546.0054	-12549.2005	-12552.4940	-12556.9912	-12558.6325	-12561.0945	-12562.4076	-12562.7686	-12564.8257	-12566.1607	-12569.3339	-12573.3824	-12576.5228	-12579.5866	-12583.1100	-12586.5676	-12592.6405	-12599.3589	-12604.7424	-12609.1740	-12613.9447	-12620.5100	-12625.7731	-12630.2593	-12634.6581	-12640.7528	-12645.1734	-12649.4955	-12653.0736	-12657.3191	-12660.7111	-12665.5256	-12668.1627	-12671.5438	-12673.2945	-12675.6580	-12679.3345	-12683.0001	-12685.2214	-12687.1581	-12692.3337	-12695.6492	-12700.3980	-12704.0964	-12709.5784	-12714.3163	-12718.2883	-12724.5034	-12730.0729	-12733.0492	-12737.9731	-12741.5949	-12747.0331	-12750.3158	-12753.9485	-12757.8548	-12760.8530	-12766.6632	-12770.6461	-12775.4606	-12777.4193	-12782.9997	-12785.8447	-12788.5802	-12792.0488	-12796.4366	-12799.3034	-12804.2602	-12807.2583	-12811.8102	-12814.1627	-12816.6357	-12817.5767	-12818.4520	-12819.4696	-12819.0210	-12816.7998	-12810.7816	-12788.6349	-12687.9678	-12481.5019	-12247.1883	-12122.3065	-12116.9230	-12128.6419	-12299.8963	-12513.9779	-12734.0230	-12834.8651	-12863.7632	-12876.0402	-12886.6321	-12893.0770	-12900.7583	-12905.2774
-12095.0060	-11872.3348	-11803.9031	-11790.0395	-11826.6407	-11982.2808	-12239.0365	-12371.3261	-12423.3010	-12437.7883	-12448.0738	-12456.9369	-12461.4341	-12466.3799	-12474.9257	-12478.8758	-12485.2222	-12487.8920	-12492.7503	-12494.9278	-12499.6985	-12503.3422	-12507.2814	-12510.5312	-12513.9998	-12519.7335	-12521.8234	-12526.7692	-12529.9971	-12534.3958	-12537.5362	-12542.5039	-12544.3094	-12547.3294	-12550.2290	-12554.8685	-12558.3809	-12560.7444	-12562.6155	-12564.2677	-12566.4342	-12569.4324	-12571.8177	-12574.2250	-12579.1270	-12582.6394	-12585.1999	-12588.3731	-12593.3189	-12597.0502	-12604.3813	-12607.6749	-12612.5004	-12616.6146	-12622.7640	-12627.5457	-12631.2988	-12635.7960	-12640.7747	-12645.2719	-12649.6159	-12654.0036	-12657.4942	-12663.2169	-12665.7007	-12669.1146	-12669.8915	-12671.8392	-12673.5681	-12677.9449	-12680.0677	-12682.9235	-12685.8341	-12688.2851	-12691.5568	-12698.7129	-12703.0241	-12705.9785	-12713.3534	-12716.1218	-12722.5229	-12728.1690	-12732.3598	-12738.0059	-12742.8970	-12745.5231	-12750.0531	-12754.0142	-12758.5004	-12761.5314	-12766.5210	-12771.0291	-12773.7974	-12777.8241	-12781.2818	-12784.4878	-12787.2890	-12790.9874	-12794.9813	-12799.7411	-12803.2535	-12807.4334	-12809.5342	-12813.5390	-12814.7536	-12817.1171	-12817.3141	-12817.9596	-12816.6357	-12814.2940	-12807.8820	-12774.3445	-12668.4581	-12494.4792	-12265.2975	-12171.8959	-12133.6206	-12121.9673	-12203.2997	-12372.7048	-12641.7595	-12811.4929	-12859.2222	-12879.0164	-12887.3214	-12892.7378	-12899.6860	-12904.9710
-12083.1995	-11861.4694	-11774.6659	-11769.9389	-11788.8140	-11911.4856	-12153.6993	-12330.3371	-12405.7608	-12441.8916	-12452.8118	-12464.1477	-12471.4352	-12477.6612	-12484.9815	-12491.3497	-12495.7484	-12498.0244	-12501.1429	-12506.0231	-12510.9251	-12513.9451	-12517.7748	-12522.1517	-12525.8829	-12527.9947	-12530.8397	-12532.8968	-12537.3611	-12540.6547	-12544.9768	-12548.0734	-12551.3889	-12553.4241	-12558.4356	-12561.5869	-12564.0707	-12568.0537	-12570.3624	-12572.2226	-12575.3958	-12577.6389	-12580.6480	-12583.2303	-12588.4497	-12593.0891	-12595.1681	-12598.4398	-12602.4665	-12607.9594	-12612.4785	-12618.3981	-12622.3154	-12627.2174	-12632.1304	-12636.0805	-12640.4136	-12645.6658	-12649.2220	-12655.6887	-12658.7853	-12663.1622	-12668.6988	-12674.2684	-12677.6604	-12678.0434	-12679.4987	-12678.8859	-12679.0938	-12681.8622	-12684.4992	-12685.5059	-12688.9417	-12691.9945	-12697.6953	-12700.1245	-12709.7644	-12713.8677	-12715.8701	-12720.3235	-12728.0705	-12734.2747	-12738.1591	-12744.5712	-12748.7292	-12752.6245	-12755.3710	-12761.0390	-12763.9605	-12769.1033	-12772.5172	-12776.7627	-12781.4569	-12784.4331	-12788.8100	-12790.7248	-12795.2439	-12797.4433	-12802.9143	-12806.2188	-12812.3573	-12814.6333	-12817.7736	-12819.8089	-12822.9273	-12824.8860	-12825.8489	-12825.6300	-12824.8531	-12822.2052	-12813.7469	-12782.5730	-12693.5373	-12608.6706	-12414.3066	-12349.1137	-12259.0933	-12164.1052	-12202.3915	-12357.4407	-12557.7462	-12764.4091	-12867.7461	-12878.8194	-12892.6065	-12907.2032	-12907.5862	-12912.1162
-12053.8529	-11886.7674	-11817.5151	-11793.9896	-11773.7687	-11816.1473	-12006.2001	-12200.5313	-12384.4238	-12438.9700	-12452.2428	-12461.7952	-12468.5574	-12473.7111	-12480.7250	-12484.1499	-12489.8069	-12494.0853	-12498.1010	-12499.7642	-12504.9398	-12507.9160	-12511.1987	-12514.2187	-12519.5365	-12521.1997	-12525.6860	-12530.4239	-12533.0719	-12537.2627	-12541.0705	-12545.1957	-12548.8722	-12551.7500	-12553.6101	-12558.5888	-12561.0945	-12565.6792	-12567.9552	-12570.8001	-12575.0894	-12578.1313	-12580.8997	-12583.7665	-12587.3883	-12591.5025	-12594.5444	-12597.2799	-12601.4379	-12605.1911	-12610.8043	-12615.6517	-12620.3458	-12624.2412	-12630.4563	-12634.1438	-12638.5644	-12641.8798	-12645.9393	-12649.0141	-12653.9161	-12657.7021	-12661.4552	-12664.1688	-12665.7992	-12667.5609	-12667.7578	-12668.5347	-12669.2459	-12669.1037	-12672.1565	-12674.4434	-12676.5662	-12679.1704	-12684.8275	-12692.3556	-12696.7434	-12704.4138	-12708.9657	-12714.2288	-12723.1028	-12728.1033	-12735.1172	-12739.7567	-12744.3852	-12747.8538	-12751.2677	-12755.2944	-12761.9909	-12764.3544	-12768.5562	-12774.1804	-12779.2794	-12781.6429	-12784.4112	-12787.4313	-12790.9984	-12793.4603	-12799.7520	-12803.0128	-12806.3720	-12809.6765	-12812.1494	-12816.1870	-12817.7846	-12820.6842	-12821.3626	-12822.3255	-12820.3997	-12818.0253	-12815.7712	-12802.2906	-12755.6445	-12733.1148	-12646.2895	-12536.7265	-12415.7510	-12342.6251	-12345.3497	-12395.4644	-12515.9694	-12760.8639	-12865.6233	-12880.1981	-12890.2539	-12899.8392	-12905.5072	-12910.4092
-12208.4096	-12068.3949	-11911.6388	-11867.4109	-11818.0293	-11887.6756	-11982.8388	-12169.7075	-12380.4409	-12432.3282	-12447.0453	-12454.8689	-12463.7648	-12468.8419	-12475.6260	-12480.4405	-12483.7669	-12487.4653	-12491.2075	-12494.8512	-12498.0135	-12503.4517	-12506.6468	-12509.6449	-12512.8837	-12516.8010	-12520.7949	-12524.7997	-12528.8263	-12532.5685	-12536.2669	-12540.8954	-12543.4012	-12547.9640	-12550.1743	-12552.6035	-12557.1554	-12560.4927	-12564.5522	-12567.6488	-12571.3801	-12574.3235	-12578.4267	-12580.4401	-12585.4734	-12588.3621	-12591.8855	-12595.0587	-12598.2866	-12603.6154	-12607.2482	-12612.2487	-12616.8991	-12620.9586	-12625.9372	-12631.2988	-12634.3188	-12638.6410	-12643.1163	-12645.6877	-12649.2220	-12653.4237	-12656.4218	-12657.7568	-12659.9780	-12660.7330	-12660.9190	-12662.5166	-12660.4704	-12658.8181	-12658.3476	-12656.5750	-12658.4023	-12659.5184	-12670.5152	-12677.8792	-12687.2566	-12694.7738	-12705.4861	-12711.4386	-12717.2160	-12724.8426	-12729.0991	-12736.2661	-12738.5749	-12744.9213	-12748.6526	-12753.1498	-12756.4652	-12761.3891	-12766.5100	-12770.0553	-12774.0272	-12777.7694	-12780.3736	-12783.7766	-12788.4379	-12792.1473	-12795.3096	-12799.8505	-12803.8006	-12805.6936	-12808.8777	-12813.3202	-12816.3293	-12817.4563	-12819.5462	-12819.6010	-12819.0320	-12816.7670	-12815.3992	-12810.7160	-12799.8067	-12785.3742	-12749.0246	-12703.8448	-12645.5564	-12584.5762	-12560.3176	-12557.4070	-12574.3782	-12713.4847	-12862.3626	-12877.2110	-12886.6540	-12894.6198	-12899.8939	-12906.5576
-12271.2281	-12226.5188	-12134.3537	-12008.4542	-12007.1959	-11976.8863	-12038.4027	-12165.0900	-12353.2280	-12423.8590	-12438.5652	-12447.2422	-12452.9978	-12461.4779	-12465.8985	-12468.4480	-12474.1379	-12478.1208	-12482.6508	-12486.5462	-12489.8069	-12492.7941	-12496.9521	-12499.8408	-12504.3380	-12507.4236	-12511.1877	-12514.1421	-12519.0332	-12522.4909	-12526.4738	-12529.9424	-12534.2427	-12538.2365	-12541.7489	-12545.9288	-12549.0473	-12552.1111	-12555.0654	-12559.2453	-12562.9437	-12567.5722	-12570.8877	-12574.9691	-12578.6456	-12581.7641	-12584.9482	-12590.2114	-12593.7019	-12596.6891	-12601.4817	-12604.8190	-12609.7430	-12614.0432	-12619.5471	-12623.4096	-12628.1803	-12631.0472	-12635.2489	-12638.6191	-12641.9345	-12644.3965	-12648.5873	-12649.7800	-12651.4322	-12653.0845	-12652.0012	-12651.7824	-12649.7472	-12647.1758	-12641.3437	-12630.8393	-12621.9215	-12635.1176	-12644.7029	-12658.2492	-12673.9182	-12685.8341	-12694.3142	-12703.4509	-12709.1079	-12717.3801	-12723.7046	-12729.1100	-12732.8194	-12737.1634	-12742.4922	-12747.3942	-12751.6179	-12756.0385	-12760.0433	-12763.1070	-12767.6042	-12770.9744	-12775.1433	-12778.7104	-12782.7809	-12784.8270	-12789.6634	-12792.3005	-12796.7758	-12799.7411	-12803.2863	-12808.7574	-12810.4315	-12812.4667	-12813.7798	-12815.3883	-12815.4648	-12815.4101	-12813.3859	-12812.5543	-12810.5081	-12807.8711	-12797.8700	-12783.3499	-12757.2859	-12724.3612	-12745.4575	-12748.5103	-12772.7251	-12751.8805	-12841.7368	-12873.0311	-12883.2072	-12891.1402	-12898.7231	-12899.8173
-12331.2344	-12306.8336	-12259.1918	-12198.6384	-12182.1377	-12169.0729	-12147.6702	-12224.0240	-12322.8637	-12397.8716	-12429.3191	-12433.7507	-12442.9967	-12450.3170	-12454.0592	-12457.7576	-12464.4213	-12467.7696	-12470.7896	-12474.5865	-12478.8320	-12484.0514	-12485.6489	-12489.6756	-12493.3084	-12497.6086	-12499.8189	-12504.9836	-12508.1239	-12512.6540	-12515.9475	-12520.7730	-12523.9571	-12527.7540	-12532.3606	-12536.4858	-12540.5781	-12543.4340	-12547.7452	-12551.2138	-12555.9298	-12559.2891	-12563.8519	-12566.7734	-12571.6755	-12574.5095	-12578.6784	-12582.3659	-12586.7646	-12589.9706	-12593.7566	-12598.1006	-12602.4118	-12606.6682	-12611.5265	-12616.0237	-12620.1051	-12625.7403	-12628.2679	-12631.8241	-12634.8003	-12638.6629	-12641.3327	-12642.9740	-12643.3461	-12643.8275	-12643.7290	-12641.7813	-12636.8574	-12621.1774	-12599.0963	-12569.0056	-12542.2741	-12559.9346	-12586.9287	-12621.5932	-12651.4432	-12669.3554	-12684.4445	-12695.7805	-12703.0679	-12710.1583	-12718.6603	-12723.4530	-12728.0596	-12732.0863	-12736.7476	-12741.2667	-12745.7310	-12750.8519	-12754.3862	-12758.1503	-12760.9186	-12766.4772	-12769.6395	-12775.4169	-12776.9925	-12780.2095	-12783.1310	-12787.7814	-12791.8956	-12794.4670	-12799.1612	-12801.6669	-12805.8905	-12807.6522	-12810.7488	-12811.5476	-12813.0795	-12813.1014	-12813.5938	-12811.7774	-12811.5038	-12811.2631	-12811.0005	-12808.0790	-12805.4966	-12801.6231	-12810.2127	-12830.1272	-12843.2687	-12854.1013	-12863.4130	-12869.5296	-12878.5678	-12885.7567	-12890.2320	-12894.0727
-12348.9058	-12340.8525	-12329.9870	-12298.2003	-12297.3577	-12325.5883	-12334.9875	-12331.7487	-12384.5661	-12405.2794	-12415.5540	-12426.1022	-12433.1598	-12439.8673	-12441.6837	-12447.4392	-12451.0063	-12456.6305	-12461.8171	-12465.1982	-12469.2468	-12473.0327	-12477.3111	-12480.2216	-12486.0538	-12489.3364	-12492.6300	-12495.0919	-12499.0092	-12502.4669	-12507.6425	-12510.8047	-12515.2582	-12518.8581	-12523.5304	-12527.4805	-12532.6670	-12536.9782	-12539.3964	-12544.7361	-12548.4126	-12553.5007	-12557.6806	-12563.4142	-12565.0884	-12569.9904	-12574.0609	-12577.9234	-12581.9063	-12585.6813	-12589.7080	-12594.0520	-12598.2538	-12602.6525	-12606.7120	-12610.5746	-12616.5708	-12620.9914	-12623.5190	-12626.5719	-12630.3031	-12634.1438	-12637.2404	-12637.6452	-12640.8841	-12638.5863	-12635.4021	-12630.7298	-12619.3829	-12586.6114	-12533.3345	-12481.2611	-12401.0995	-12396.5586	-12451.6957	-12554.6387	-12629.1323	-12654.7477	-12672.6818	-12686.3046	-12696.6449	-12705.7487	-12711.3510	-12717.8506	-12722.3369	-12728.2894	-12733.2242	-12737.6230	-12741.8028	-12746.8581	-12749.8781	-12754.5285	-12760.2293	-12761.8378	-12766.0833	-12768.6437	-12772.8783	-12775.2199	-12778.4478	-12782.8903	-12787.1030	-12790.1777	-12794.1716	-12797.3229	-12801.0104	-12803.8663	-12808.2869	-12809.9391	-12809.8953	-12811.4929	-12811.5804	-12812.6746	-12815.1913	-12817.4891	-12817.9487	-12818.6818	-12819.0210	-12824.1638	-12829.5035	-12837.9727	-12845.4571	-12854.3639	-12861.8264	-12869.0044	-12876.0949	-12883.3276	-12885.8005	-12888.0764
-12353.1842	-12351.7180	-12349.2560	-12346.1266	-12349.8797	-12362.1020	-12374.4228	-12386.0214	-12399.0424	-12407.0848	-12414.4926	-12421.0360	-12428.4328	-12434.0023	-12439.6922	-12443.5438	-12448.5553	-12452.4944	-12456.3789	-12460.2743	-12465.3733	-12469.2249	-12473.7987	-12477.4424	-12480.8453	-12485.0033	-12487.0933	-12490.9996	-12493.4287	-12496.9193	-12501.7775	-12506.0340	-12509.7215	-12513.7810	-12518.7268	-12523.3881	-12528.5528	-12534.1442	-12535.4791	-12540.6219	-12545.0315	-12549.7257	-12554.0040	-12557.1882	-12563.9176	-12566.1607	-12570.3843	-12573.7107	-12578.2517	-12580.7246	-12586.6442	-12590.6819	-12594.9712	-12600.9018	-12605.6944	-12610.0384	-12613.4085	-12616.7349	-12618.5841	-12620.9039	-12623.5081	-12628.5524	-12629.5043	-12630.3578	-12631.1347	-12631.0472	-12628.4539	-12619.3173	-12601.9960	-12543.6747	-12394.3483	-12248.0199	-12147.4623	-12117.0433	-12186.4817	-12380.1236	-12556.8818	-12632.9839	-12668.3159	-12681.2713	-12694.7519	-12701.8314	-12710.3006	-12717.0081	-12724.1095	-12727.9611	-12729.2960	-12733.7166	-12738.6624	-12742.9080	-12747.1207	-12751.7382	-12756.8591	-12762.5380	-12765.7003	-12766.7836	-12771.3902	-12773.9069	-12776.6096	-12781.6757	-12784.7176	-12789.1382	-12792.2129	-12795.5612	-12799.5551	-12803.4395	-12806.1422	-12808.7574	-12809.3811	-12810.4206	-12812.9482	-12816.6138	-12820.3669	-12820.1371	-12822.1942	-12824.1310	-12827.3370	-12833.4098	-12838.3557	-12845.5993	-12850.9062	-12856.7274	-12861.0495	-12868.8512	-12872.7685	-12879.3556	-12883.3823	-12889.0503
-12361.4236	-12361.5549	-12363.5463	-12364.5311	-12367.9669	-12375.5388	-12386.2621	-12396.2741	-12403.1019	-12410.2252	-12416.5497	-12424.3295	-12429.6693	-12435.9829	-12440.3597	-12445.0648	-12446.9030	-12452.1115	-12454.2014	-12459.0487	-12461.1277	-12465.8219	-12469.4656	-12474.9585	-12478.2958	-12479.6964	-12483.7231	-12485.8568	-12489.4677	-12493.3193	-12496.8864	-12499.7861	-12505.8699	-12509.8200	-12515.1925	-12519.5912	-12527.0647	-12530.2379	-12534.9648	-12538.2146	-12542.7665	-12547.4388	-12550.8855	-12556.5973	-12560.0769	-12563.7206	-12568.9509	-12572.7478	-12575.4396	-12579.5100	-12584.7950	-12589.1609	-12591.7104	-12599.2276	-12602.1929	-12606.4603	-12610.0493	-12615.0827	-12617.5447	-12620.3130	-12622.8516	-12627.1299	-12630.4125	-12630.9159	-12629.8326	-12628.5305	-12626.8564	-12611.2092	-12583.1975	-12450.2623	-12195.4761	-12040.0112	-11966.4695	-11930.9843	-12020.8954	-12232.7229	-12487.1917	-12596.4265	-12662.2211	-12680.7570	-12690.5830	-12702.2363	-12711.1213	-12715.9358	-12723.3435	-12728.5848	-12730.1057	-12732.8741	-12738.3670	-12742.2077	-12746.7924	-12750.5893	-12754.6707	-12759.2335	-12763.9933	-12765.5471	-12770.0881	-12773.1956	-12776.3579	-12780.6691	-12785.3194	-12786.8732	-12792.8257	-12795.2111	-12798.7344	-12802.2797	-12804.9276	-12808.2103	-12810.0595	-12813.5609	-12816.2308	-12817.4344	-12820.5857	-12824.2185	-12824.7766	-12828.2780	-12831.0901	-12837.1302	-12841.5289	-12846.2558	-12851.0266	-12857.0994	-12862.5486	-12867.2537	-12871.4883	-12877.8128	-12881.3361	-12882.7586
-12366.3147	-12369.0940	-12370.8556	-12372.5735	-12378.2415	-12385.5071	-12391.3283	-12398.2108	-12404.1086	-12412.5996	-12417.3047	-12423.5745	-12429.0018	-12433.9257	-12438.4229	-12441.9135	-12444.7584	-12449.8902	-12453.0744	-12455.5145	-12459.6943	-12461.6420	-12467.7258	-12471.2820	-12473.3172	-12475.5275	-12478.3068	-12481.4800	-12484.1717	-12486.8525	-12489.9492	-12496.3065	-12500.4098	-12505.7823	-12510.5531	-12518.4532	-12524.2854	-12529.1765	-12531.9229	-12537.6238	-12539.9654	-12546.4431	-12549.2005	-12554.4527	-12558.9936	-12563.1735	-12569.7825	-12573.1964	-12576.9824	-12580.5276	-12584.5762	-12588.4825	-12593.8988	-12598.1662	-12602.9151	-12606.6135	-12610.6183	-12614.2292	-12618.0152	-12619.4814	-12621.7902	-12624.5257	-12628.7056	-12630.2922	-12631.1785	-12629.0338	-12622.4139	-12609.4803	-12550.7214	-12425.2924	-12172.2023	-12005.4889	-11914.4509	-11918.4885	-11953.1202	-12160.3958	-12388.6037	-12529.1984	-12649.6268	-12673.2289	-12687.9022	-12701.0217	-12707.6964	-12713.2440	-12722.4901	-12726.3198	-12731.5282	-12733.5963	-12740.1287	-12739.8880	-12744.4399	-12747.6897	-12752.9419	-12756.0603	-12759.9338	-12763.2383	-12766.8383	-12769.4316	-12773.2285	-12777.1895	-12780.0782	-12784.2909	-12787.6610	-12790.9218	-12793.9637	-12798.5375	-12800.2663	-12804.5994	-12805.9671	-12809.4795	-12811.3835	-12814.9943	-12817.4782	-12820.5420	-12824.0325	-12826.4835	-12831.5278	-12838.2791	-12843.7173	-12844.9100	-12851.8910	-12858.2046	-12860.4477	-12863.5334	-12868.7418	-12873.2062	-12877.6486	-12880.6030
-12365.2205	-12367.5292	-12373.5255	-12377.8257	-12382.8591	-12387.7611	-12393.6917	-12398.3312	-12405.3779	-12409.5687	-12416.1120	-12420.8828	-12423.4979	-12428.4109	-12433.5647	-12437.2521	-12442.2198	-12446.0277	-12448.9711	-12453.8403	-12456.8713	-12460.9527	-12461.6530	-12465.3185	-12467.0693	-12469.3015	-12469.7829	-12473.0546	-12474.7506	-12478.3396	-12482.6946	-12488.1328	-12492.8488	-12499.2937	-12505.6620	-12512.2710	-12518.5627	-12523.8915	-12527.6118	-12532.7874	-12539.2979	-12543.8936	-12547.7452	-12552.2095	-12557.0131	-12560.8210	-12566.2810	-12571.4676	-12574.4219	-12578.3283	-12581.8626	-12586.6442	-12590.3536	-12596.3936	-12598.8228	-12604.4142	-12607.6202	-12612.0080	-12614.8857	-12617.3586	-12619.7987	-12623.4643	-12625.3245	-12626.1561	-12626.3640	-12625.1385	-12620.1707	-12599.2714	-12550.7542	-12466.8176	-12243.1179	-12096.6254	-12025.5020	-11993.7152	-11926.3340	-12043.0093	-12277.4322	-12505.6401	-12642.6348	-12665.9524	-12685.1010	-12694.5002	-12703.3196	-12710.5632	-12717.1722	-12722.8840	-12726.6699	-12732.1410	-12735.0844	-12737.6667	-12738.6077	-12744.5821	-12747.4927	-12750.8081	-12755.6883	-12759.9338	-12763.6104	-12765.8535	-12770.3288	-12774.0600	-12778.7542	-12780.9864	-12786.1401	-12788.7881	-12792.5959	-12795.2001	-12800.2116	-12802.9799	-12806.1203	-12808.5713	-12811.9415	-12814.3925	-12818.4739	-12821.1547	-12824.9954	-12827.3370	-12830.6743	-12837.3709	-12843.1374	-12847.0546	-12852.5038	-12857.9420	-12858.8720	-12862.8112	-12864.9230	-12871.3788	-12875.2304	-12878.6225
-12364.2466	-12367.7590	-12374.1383	-12379.9704	-12384.5661	-12388.1769	-12392.9477	-12398.1452	-12401.0448	-12407.8289	-12413.7704	-12416.8342	-12420.0074	-12425.2596	-12429.0565	-12433.8054	-12437.1099	-12440.4034	-12445.3055	-12448.8836	-12450.7984	-12452.9321	-12455.6129	-12457.4950	-12459.7271	-12460.2414	-12461.5435	-12462.7690	-12464.7167	-12468.1088	-12471.7197	-12478.2521	-12484.3796	-12493.6913	-12496.6238	-12504.2833	-12509.7105	-12516.6587	-12521.9328	-12528.5965	-12533.2907	-12538.0505	-12541.1799	-12546.1805	-12551.7828	-12555.2296	-12558.8076	-12564.6835	-12568.3710	-12572.8572	-12577.7155	-12580.3525	-12586.5676	-12591.5791	-12595.5292	-12598.3085	-12602.2258	-12603.9984	-12608.2658	-12610.8919	-12613.9009	-12616.4504	-12617.8948	-12619.5689	-12618.9562	-12619.4376	-12615.3562	-12605.9242	-12570.5922	-12523.0489	-12382.8700	-12360.3513	-12228.9479	-12096.6364	-12030.3055	-12088.5283	-12241.8158	-12416.6373	-12627.3597	-12668.4253	-12682.8798	-12693.4826	-12698.6582	-12706.9195	-12713.7145	-12717.7412	-12723.7812	-12726.8669	-12731.7471	-12733.8151	-12738.1810	-12738.7719	-12743.1159	-12745.2605	-12750.4689	-12753.7734	-12758.9272	-12760.9624	-12765.0985	-12769.1361	-12773.6880	-12779.3013	-12779.9359	-12783.7876	-12786.5668	-12790.9546	-12793.0774	-12798.3405	-12800.5289	-12778.1086	-12746.4313	-12771.3792	-12817.0296	-12820.0824	-12823.4526	-12825.8489	-12829.5364	-12833.5302	-12837.6116	-12841.9118	-12847.1969	-12851.5518	-12857.1213	-12860.6994	-12864.2337	-12867.3412	-12872.3199	-12875.7666
-12359.7713	-12363.5901	-12368.7985	-12373.5802	-12378.6902	-12382.7934	-12387.3344	-12389.8730	-12395.5191	-12399.7755	-12406.2642	-12410.1486	-12415.2367	-12418.7053	-12423.0931	-12425.7958	-12429.5051	-12433.0504	-12437.6351	-12439.9220	-12442.0229	-12444.7365	-12446.1918	-12449.0477	-12449.0915	-12449.9887	-12450.4483	-12450.0215	-12450.7218	-12454.0920	-12459.8694	-12468.1197	-12475.0570	-12482.1912	-12489.9710	-12495.1795	-12500.4535	-12507.8613	-12514.7986	-12520.2259	-12526.4519	-12530.0081	-12534.9977	-12540.5343	-12543.7076	-12548.4674	-12552.9974	-12557.1772	-12560.9413	-12566.2045	-12570.6469	-12574.0061	-12577.7483	-12583.1209	-12586.4692	-12591.4588	-12593.5596	-12597.5973	-12600.5735	-12604.7096	-12606.7339	-12611.1107	-12611.9861	-12614.1964	-12613.8572	-12613.2772	-12611.8110	-12607.0074	-12592.8703	-12573.8967	-12520.1164	-12489.1832	-12424.8001	-12322.8747	-12265.3194	-12231.9242	-12280.8571	-12382.3558	-12580.0681	-12662.0461	-12677.4197	-12684.3022	-12693.2638	-12700.0807	-12706.0879	-12711.3182	-12716.9424	-12720.9363	-12724.4159	-12728.0705	-12725.8712	-12731.9987	-12734.6467	-12740.7962	-12743.8380	-12747.1535	-12750.5893	-12754.3206	-12757.6032	-12762.5928	-12765.2517	-12769.9458	-12772.8345	-12777.0472	-12781.1615	-12783.9189	-12788.6130	-12791.7643	-12784.5754	-12726.0244	-12724.8973	-12758.8725	-12812.1166	-12815.6618	-12820.3778	-12823.4416	-12826.6148	-12830.9917	-12834.7010	-12839.4499	-12843.1045	-12847.2187	-12853.6308	-12857.7669	-12861.8374	-12865.0106	-12867.9540	-12871.6086
-12354.9459	-12358.1957	-12363.2290	-12367.3323	-12372.2672	-12376.1625	-12380.4300	-12384.7740	-12388.1879	-12394.9610	-12400.0600	-12404.0429	-12406.5815	-12411.6367	-12415.2257	-12419.3071	-12422.2943	-12427.0651	-12430.1070	-12432.3829	-12434.9105	-12436.4205	-12438.6527	-12438.1822	-12439.7688	-12436.9020	-12434.8668	-12433.3677	-12432.2625	-12431.3325	-12440.3378	-12449.7042	-12460.2743	-12470.1002	-12480.3967	-12483.4386	-12493.4725	-12499.8736	-12506.4607	-12514.2624	-12518.7815	-12524.5918	-12529.4829	-12535.0524	-12538.5867	-12544.0796	-12547.2309	-12552.8661	-12555.8861	-12560.1425	-12564.3005	-12568.3163	-12571.9709	-12577.0043	-12580.5386	-12585.5281	-12588.6576	-12592.1043	-12595.2666	-12597.9036	-12601.5364	-12604.6877	-12606.4494	-12608.2658	-12610.1697	-12608.6269	-12607.2263	-12605.3661	-12599.3808	-12599.7638	-12585.1233	-12561.6963	-12522.6878	-12469.1920	-12482.5304	-12442.2855	-12455.5254	-12483.4605	-12535.0961	-12656.4656	-12670.1979	-12678.7874	-12688.6025	-12694.4565	-12701.2734	-12705.1359	-12709.1954	-12711.9528	-12715.7935	-12718.5181	-12722.4791	-12726.3198	-12730.8607	-12734.5811	-12739.7567	-12741.8247	-12746.0046	-12750.1297	-12753.1169	-12755.7540	-12760.4262	-12762.8225	-12767.9981	-12770.6133	-12775.7561	-12779.2575	-12783.1420	-12786.9389	-12790.2105	-12795.5503	-12759.9885	-12730.9592	-12790.9984	-12812.3901	-12815.5743	-12820.2465	-12823.7699	-12827.1182	-12830.8713	-12834.9746	-12838.9137	-12842.8529	-12848.0722	-12853.0946	-12858.8720	-12861.9577	-12865.6890	-12868.7090
-12351.6961	-12356.4230	-12359.9245	-12363.6995	-12368.4484	-12374.5431	-12378.3181	-12383.1874	-12385.8791	-12390.5404	-12395.3987	-12400.7603	-12404.6995	-12408.5401	-12412.5668	-12415.8604	-12420.0184	-12423.1369	-12426.4851	-12429.5708	-12430.1945	-12430.4352	-12430.9495	-12431.3653	-12430.2711	-12424.1873	-12413.4203	-12402.6752	-12365.2752	-12376.2938	-12383.7454	-12416.6920	-12439.5281	-12457.1558	-12469.7939	-12484.1936	-12489.2051	-12493.8555	-12504.5896	-12510.1482	-12515.7177	-12520.7949	-12526.6926	-12531.4524	-12536.7046	-12540.7313	-12545.4802	-12549.8570	-12555.3061	-12558.2605	-12562.4076	-12565.8762	-12571.8177	-12574.0390	-12579.0395	-12582.2565	-12585.4953	-12590.3427	-12593.6362	-12596.9188	-12599.2604	-12602.3571	-12604.8737	-12607.0293	-12608.5065	-12609.9071	-12609.0317	-12608.4190	-12607.5108	-12602.5540	-12600.8361	-12598.2757	-12587.8479	-12571.4566	-12571.4676	-12589.5877	-12608.1892	-12634.4173	-12646.2785	-12658.9713	-12667.5718	-12674.7717	-12682.6500	-12689.5544	-12696.8966	-12700.7810	-12706.3396	-12709.9833	-12714.6337	-12715.0276	-12717.5333	-12722.4572	-12724.8207	-12728.7270	-12732.9288	-12736.7695	-12738.8375	-12744.3304	-12746.3985	-12750.2720	-12754.2221	-12757.9861	-12760.1964	-12765.5471	-12769.2674	-12773.3598	-12777.3974	-12783.0763	-12785.4836	-12788.8975	-12794.0950	-12798.5375	-12802.9471	-12806.3063	-12812.1494	-12814.5457	-12819.7760	-12822.5772	-12826.1771	-12830.1929	-12834.5259	-12838.7605	-12842.1526	-12849.0351	-12853.6199	-12857.9639	-12861.6185	-12864.9449
-12351.0286	-12354.3222	-12359.2461	-12363.2728	-12367.2776	-12371.2824	-12376.7096	-12380.5175	-12384.5004	-12389.0742	-12393.0352	-12397.2041	-12402.4126	-12406.1985	-12409.0872	-12413.5954	-12416.8671	-12421.0360	-12422.1849	-12425.7630	-12425.3909	-12426.5398	-12426.8025	-12425.8177	-12419.3618	-12411.3304	-12362.5725	-12320.5440	-12294.2940	-12265.4835	-12228.3352	-12351.9587	-12400.1366	-12442.8216	-12457.4512	-12474.5318	-12485.6380	-12491.6780	-12501.2304	-12506.1872	-12513.2120	-12518.9675	-12523.9462	-12529.5923	-12533.5533	-12539.1228	-12541.5082	-12546.1586	-12552.1877	-12556.7177	-12559.8690	-12563.6659	-12566.6750	-12570.8220	-12574.4219	-12577.8468	-12582.3549	-12587.1366	-12589.3798	-12593.7019	-12596.3717	-12599.2276	-12602.5431	-12604.4908	-12606.9637	-12608.5612	-12609.6226	-12609.1302	-12609.3819	-12607.6530	-12610.7496	-12608.9661	-12610.6402	-12608.8895	-12610.9904	-12620.8163	-12631.3426	-12639.6805	-12649.9879	-12658.7963	-12665.4272	-12673.4915	-12679.4330	-12687.3770	-12689.1167	-12694.3908	-12698.0126	-12703.4509	-12707.8167	-12712.0404	-12715.5200	-12718.4306	-12722.3478	-12724.7332	-12728.8365	-12731.2109	-12735.9269	-12739.3080	-12742.9627	-12745.5122	-12748.2149	-12751.9242	-12756.1260	-12760.4591	-12764.7374	-12768.0419	-12775.0339	-12777.5615	-12781.7523	-12786.7638	-12791.3048	-12795.6488	-12799.7083	-12804.1179	-12808.0571	-12813.4625	-12815.3992	-12819.7432	-12823.1681	-12826.2100	-12830.7072	-12835.3685	-12840.9489	-12845.3805	-12849.6041	-12853.8825	-12857.9420	-12861.3340
-12352.7575	-12357.8893	-12362.7804	-12367.6058	-12370.8228	-12375.2653	-12380.1126	-12383.6688	-12387.3125	-12392.1051	-12395.9020	-12400.7056	-12404.4916	-12408.1681	-12412.6653	-12415.9370	-12419.1868	-12421.7691	-12425.4894	-12426.9338	-12429.2863	-12429.5270	-12429.7021	-12422.6335	-12416.5716	-12384.1612	-12319.6030	-12196.8876	-12086.5806	-12015.8511	-11994.7766	-12150.8215	-12322.4370	-12418.1144	-12457.4950	-12477.3220	-12489.4458	-12500.9350	-12506.6139	-12512.1725	-12515.9147	-12523.8367	-12528.2902	-12531.7698	-12537.5472	-12540.8298	-12544.7908	-12549.1239	-12554.0150	-12557.3414	-12561.6963	-12564.7163	-12568.8853	-12571.1940	-12575.3958	-12579.0723	-12583.5367	-12586.8193	-12591.3712	-12595.1462	-12597.7395	-12601.7224	-12603.0573	-12606.9090	-12608.3314	-12612.0736	-12613.8025	-12615.3234	-12614.9295	-12615.9581	-12618.3544	-12619.9081	-12620.5537	-12624.3506	-12628.7603	-12634.7784	-12641.3765	-12647.9198	-12655.5465	-12661.2801	-12669.5851	-12675.8002	-12680.6366	-12686.6876	-12690.7690	-12691.7210	-12697.7829	-12701.4594	-12706.3286	-12709.9176	-12713.4957	-12717.5990	-12720.3345	-12722.6323	-12725.5757	-12729.2304	-12731.2765	-12736.5944	-12738.8156	-12742.3609	-12748.4447	-12751.6507	-12752.4823	-12758.1612	-12760.3825	-12765.2189	-12772.6595	-12776.9378	-12779.6077	-12784.9365	-12788.6677	-12793.2196	-12797.1369	-12800.1022	-12804.4352	-12809.6108	-12813.6375	-12815.7603	-12820.8921	-12823.1571	-12828.5297	-12832.6111	-12838.7496	-12841.7805	-12847.0108	-12850.6108	-12854.4515	-12859.8897
-12359.9573	-12363.7871	-12368.5906	-12371.2277	-12375.6811	-12379.4123	-12384.5551	-12388.5599	-12391.6018	-12394.8188	-12399.3707	-12402.6533	-12407.6538	-12412.3042	-12414.9303	-12419.0774	-12422.5132	-12426.1678	-12428.3343	-12429.3082	-12429.7349	-12431.0042	-12429.2972	-12427.1745	-12411.2100	-12374.3790	-12093.4741	-11986.3731	-11888.0039	-11849.9145	-11809.8337	-12004.5807	-12256.6751	-12389.7745	-12452.5710	-12473.0108	-12490.0695	-12500.2128	-12510.1482	-12515.5755	-12521.1012	-12523.4428	-12529.0780	-12534.1879	-12538.3022	-12542.8760	-12546.3665	-12551.5092	-12555.5688	-12559.6830	-12562.4623	-12568.8634	-12570.4281	-12574.0061	-12577.5186	-12582.3221	-12585.5281	-12590.6819	-12593.9645	-12597.9912	-12601.1644	-12603.6592	-12606.2962	-12609.3381	-12612.0627	-12613.7368	-12616.8991	-12617.8620	-12620.1707	-12623.1470	-12624.2631	-12625.3026	-12627.6223	-12631.3426	-12636.3541	-12642.5582	-12646.1582	-12654.7586	-12660.0437	-12665.5803	-12671.7407	-12677.8902	-12682.6719	-12685.1010	-12688.9198	-12692.9793	-12696.4589	-12701.5032	-12706.2192	-12712.2264	-12714.5680	-12717.3254	-12719.2293	-12720.4001	-12721.8007	-12722.4572	-12726.4292	-12727.8298	-12730.8060	-12733.3008	-12736.7148	-12741.8356	-12745.6107	-12751.0817	-12757.6579	-12762.8335	-12769.3768	-12773.8740	-12777.1019	-12782.7481	-12787.4641	-12792.2458	-12795.8676	-12800.0037	-12802.1593	-12808.6698	-12812.0837	-12817.3688	-12819.3493	-12824.0872	-12828.0811	-12831.7795	-12835.6749	-12840.1064	-12844.6583	-12848.5974	-12851.8472	-12855.3596
-12361.1172	-12366.2600	-12370.2319	-12375.1996	-12378.0118	-12382.7934	-12387.4985	-12391.9738	-12395.5410	-12398.2546	-12401.8655	-12406.3298	-12410.8489	-12414.1972	-12418.7053	-12421.4955	-12425.7739	-12428.3781	-12431.3762	-12432.1750	-12431.9999	-12431.4200	-12430.7963	-12422.6664	-12339.0799	-12132.2856	-11890.7613	-11821.0056	-11757.6948	-11744.6518	-11768.6040	-11869.8838	-12114.2969	-12338.2264	-12443.5001	-12470.1440	-12486.9620	-12501.8760	-12508.9118	-12517.8843	-12522.9286	-12528.9029	-12533.5095	-12538.5538	-12542.0553	-12545.0753	-12547.1981	-12551.6296	-12555.7219	-12558.4356	-12563.2720	-12566.6093	-12572.5727	-12574.8596	-12578.7441	-12583.0005	-12587.4977	-12590.1348	-12593.5815	-12596.6125	-12600.0264	-12602.7947	-12605.2458	-12608.8895	-12611.1435	-12615.5423	-12617.6541	-12620.9367	-12622.0747	-12627.3597	-12629.4277	-12632.3821	-12634.2970	-12637.4373	-12641.2342	-12646.8475	-12651.9246	-12658.0631	-12663.5232	-12668.0642	-12672.2003	-12674.1261	-12680.8555	-12684.8165	-12688.4055	-12691.4802	-12695.2224	-12698.3409	-12704.7092	-12708.7906	-12712.4890	-12714.0209	-12714.3163	-12715.1151	-12715.8920	-12718.3977	-12720.1375	-12722.9715	-12725.6195	-12728.1143	-12731.9878	-12739.2205	-12742.2077	-12748.8495	-12753.5327	-12762.4724	-12768.3155	-12772.2218	-12776.6971	-12782.8246	-12787.8908	-12790.6811	-12795.5831	-12798.5484	-12802.7939	-12806.5580	-12811.3506	-12814.7974	-12820.1590	-12821.6471	-12827.0416	-12829.0987	-12833.8038	-12837.4803	-12843.3890	-12845.1835	-12848.8163	-12852.1427
-12359.6947	-12363.8308	-12369.0721	-12372.4860	-12377.5194	-12380.4081	-12385.9776	-12389.5228	-12392.4006	-12395.1470	-12399.6442	-12403.7256	-12407.5882	-12411.8884	-12415.7947	-12420.1934	-12423.5745	-12427.4043	-12429.3520	-12431.4200	-12432.4376	-12430.9823	-12425.8396	-12418.1144	-12303.2665	-12147.4732	-11945.3732	-11888.1133	-11839.7822	-11771.1207	-11745.5381	-11819.5831	-11998.2562	-12267.1795	-12417.4798	-12457.3855	-12485.6489	-12497.3460	-12506.3841	-12513.4090	-12520.9043	-12525.6203	-12530.5552	-12531.7807	-12536.0919	-12541.0815	-12544.4407	-12548.6096	-12552.9317	-12556.6192	-12558.9061	-12562.6264	-12569.2354	-12572.5727	-12576.7964	-12580.0352	-12583.7118	-12587.5634	-12590.8022	-12593.9645	-12597.9146	-12600.5844	-12604.7753	-12607.4342	-12611.0013	-12615.0827	-12617.9167	-12619.7659	-12622.5342	-12625.8716	-12631.5614	-12633.8155	-12635.7960	-12637.9954	-12641.1576	-12645.9940	-12651.7167	-12656.4875	-12661.4114	-12666.8496	-12668.1736	-12673.2398	-12677.8136	-12682.7266	-12684.8493	-12689.5435	-12692.6292	-12696.9294	-12702.1488	-12705.8691	-12708.1778	-12709.5894	-12708.6593	-12710.1036	-12709.9067	-12711.4605	-12711.2963	-12716.5923	-12716.9753	-12720.2360	-12724.0329	-12729.1210	-12737.6558	-12741.8575	-12747.4380	-12756.1369	-12760.9952	-12766.9477	-12772.6376	-12778.1633	-12782.4526	-12786.6215	-12790.1558	-12795.3205	-12799.2487	-12802.5970	-12807.5866	-12812.3354	-12816.2855	-12820.7827	-12823.2118	-12828.8142	-12830.7290	-12836.5721	-12840.3690	-12844.0784	-12846.7701	-12850.3810
-12353.6656	-12359.5415	-12364.6405	-12368.9298	-12371.9061	-12376.2391	-12379.5655	-12383.4062	-12386.8529	-12391.1970	-12394.4358	-12398.9549	-12403.4740	-12406.2861	-12410.6629	-12415.8713	-12419.3181	-12421.4080	-12424.7672	-12424.7563	-12425.8833	-12426.5180	-12423.7058	-12414.4160	-12385.8791	-12343.3910	-12222.7766	-12115.8178	-12004.2415	-11895.6852	-11824.3648	-11837.7579	-11947.0692	-12178.5487	-12392.3349	-12463.2505	-12478.4709	-12491.0652	-12498.9982	-12509.5245	-12514.7877	-12521.1669	-12524.2744	-12525.5984	-12530.2488	-12533.5642	-12538.7398	-12543.5434	-12547.9750	-12551.3232	-12553.9384	-12557.2210	-12562.0355	-12566.8938	-12572.7806	-12573.0651	-12578.5252	-12583.1756	-12586.4801	-12589.7408	-12592.3122	-12595.6715	-12599.0963	-12603.5826	-12605.7053	-12611.3733	-12616.1769	-12617.9495	-12618.9999	-12622.0200	-12624.9743	-12629.0229	-12631.2441	-12636.2665	-12639.4288	-12644.6482	-12650.2505	-12654.0146	-12658.4680	-12660.6674	-12665.0989	-12668.8520	-12673.9510	-12677.7808	-12681.0743	-12684.7180	-12690.8237	-12693.8765	-12697.7719	-12700.1682	-12702.7943	-12700.6935	-12702.4442	-12701.8424	-12702.7834	-12703.1664	-12702.7396	-12700.2120	-12702.6083	-12705.0156	-12706.5803	-12715.4105	-12724.3064	-12735.0953	-12740.9931	-12748.4775	-12755.2835	-12762.0894	-12767.8778	-12772.2327	-12777.0363	-12782.9997	-12788.0331	-12790.5826	-12796.0098	-12800.5946	-12802.9690	-12808.2759	-12813.7032	-12817.3359	-12821.5486	-12823.0477	-12828.1139	-12833.0050	-12836.4080	-12840.6535	-12844.1331	-12846.2777
-12345.7545	-12350.3064	-12356.4230	-12359.2023	-12365.0126	-12367.2885	-12371.5559	-12376.0641	-12380.3534	-12383.2639	-12388.2973	-12391.1313	-12395.8473	-12399.8740	-12403.4521	-12407.2271	-12411.0896	-12415.0507	-12417.6768	-12420.2263	-12420.2919	-12420.4451	-12417.6877	-12412.1401	-12396.7884	-12375.5388	-12330.5122	-12278.2967	-12211.9877	-12075.6276	-12038.5887	-11976.4596	-12027.4934	-12065.4186	-12308.2232	-12457.2871	-12473.0436	-12485.7036	-12494.6761	-12500.5848	-12506.6686	-12511.2205	-12515.0284	-12517.4575	-12522.9723	-12526.5723	-12531.1570	-12536.1794	-12539.5167	-12543.3902	-12546.5963	-12550.8199	-12555.0545	-12558.8295	-12562.2215	-12566.2045	-12569.8700	-12574.6517	-12577.9562	-12580.9325	-12583.7555	-12588.3184	-12591.3493	-12595.2228	-12600.6501	-12604.2719	-12610.3229	-12611.9314	-12615.1483	-12617.1617	-12620.3130	-12623.3330	-12626.5609	-12629.5372	-12637.2951	-12641.4859	-12645.6220	-12647.1211	-12652.7234	-12656.4328	-12660.3391	-12664.4424	-12668.2940	-12672.1346	-12675.4720	-12680.6476	-12684.3679	-12688.8104	-12692.6292	-12694.9926	-12696.0321	-12692.6620	-12694.9489	-12695.5288	-12695.1896	-12689.8827	-12684.5758	-12676.7741	-12673.6775	-12670.8435	-12679.0938	-12694.1720	-12709.3924	-12723.1466	-12734.4607	-12743.7067	-12751.1692	-12755.2835	-12762.4177	-12768.0529	-12774.5196	-12779.3341	-12785.1225	-12787.6610	-12791.5674	-12795.8457	-12800.2773	-12805.4966	-12808.8121	-12814.3816	-12817.2046	-12820.7608	-12824.6124	-12829.3394	-12833.0269	-12837.1739	-12840.3471	-12843.8814
-12334.1778	-12339.3206	-12344.9120	-12349.5514	-12352.0681	-12357.0796	-12360.7670	-12366.9712	-12370.2976	-12374.0070	-12377.1802	-12382.7825	-12385.8900	-12390.2888	-12394.6875	-12398.5610	-12402.6971	-12405.9578	-12409.6562	-12411.6477	-12412.2057	-12409.9954	-12409.9079	-12408.3651	-12403.9882	-12394.1294	-12373.8209	-12364.0387	-12313.0924	-12265.8883	-12215.3907	-12205.1051	-12164.0614	-12213.1257	-12295.7711	-12443.9706	-12465.6359	-12477.2016	-12483.4167	-12491.4482	-12496.7223	-12499.9064	-12505.2024	-12512.0084	-12514.8314	-12519.4490	-12522.5456	-12525.8939	-12529.0780	-12533.5533	-12538.0286	-12542.9744	-12546.3665	-12550.5682	-12553.1506	-12556.2690	-12559.8471	-12564.1692	-12568.9181	-12571.5223	-12576.2930	-12579.7836	-12583.2413	-12587.7713	-12590.4193	-12596.9407	-12601.1644	-12603.5716	-12606.3947	-12609.6007	-12613.9666	-12618.3106	-12621.6370	-12627.4253	-12632.3493	-12635.5334	-12637.8641	-12642.6786	-12645.3922	-12651.0930	-12653.8723	-12658.3258	-12662.1117	-12666.2806	-12670.0228	-12673.7103	-12678.5905	-12681.0853	-12684.5648	-12684.4007	-12686.3046	-12685.7356	-12687.0378	-12686.4141	-12681.7637	-12673.2507	-12655.4152	-12635.4131	-12608.9661	-12589.5986	-12606.7777	-12640.3698	-12687.6505	-12704.0746	-12722.4135	-12735.9816	-12742.2843	-12751.4100	-12757.3296	-12763.6979	-12768.7750	-12775.7889	-12779.0496	-12783.0544	-12788.0112	-12792.1801	-12796.8414	-12800.0365	-12805.4638	-12808.4291	-12812.0072	-12816.1651	-12820.6623	-12824.2623	-12829.8756	-12832.5892	-12835.8280	-12840.3581
-12325.8400	-12330.1621	-12335.1188	-12340.5680	-12345.3825	-12349.1466	-12353.3483	-12356.8279	-12362.2880	-12365.3080	-12369.4003	-12373.9632	-12376.8628	-12380.9552	-12385.8244	-12389.1508	-12394.1623	-12395.3768	-12398.9002	-12401.6685	-12403.3208	-12403.8898	-12402.7955	-12402.6642	-12401.3184	-12397.3245	-12392.7398	-12389.3806	-12376.4908	-12349.3764	-12332.8319	-12347.9429	-12330.6216	-12391.3501	-12382.1588	-12436.6284	-12459.3879	-12469.1154	-12476.7421	-12481.3925	-12488.9425	-12492.5205	-12498.2432	-12500.8693	-12505.6620	-12509.2072	-12513.0916	-12517.6217	-12520.7620	-12524.5370	-12527.9947	-12533.6737	-12537.9739	-12540.7751	-12544.0905	-12548.5439	-12550.8090	-12556.9584	-12559.6830	-12563.8300	-12567.5175	-12571.2816	-12575.2754	-12579.8383	-12583.4054	-12588.7889	-12592.2794	-12597.0392	-12599.8185	-12604.2719	-12608.2220	-12613.1131	-12618.1465	-12621.8121	-12627.1408	-12628.2460	-12631.4958	-12635.3474	-12640.1072	-12644.0026	-12648.0402	-12652.8328	-12656.5750	-12660.5908	-12664.7597	-12668.5675	-12671.4344	-12674.6404	-12675.9644	-12678.1637	-12678.1637	-12681.3369	-12680.2865	-12676.3473	-12668.8192	-12653.5988	-12606.1977	-12530.6537	-12465.2201	-12443.4016	-12406.4283	-12501.0882	-12632.1086	-12683.6676	-12709.1189	-12724.0110	-12737.1415	-12744.8009	-12752.8762	-12759.2445	-12767.4510	-12769.2346	-12774.4102	-12777.8569	-12782.6277	-12786.7747	-12791.7643	-12795.9989	-12800.4742	-12805.1684	-12807.3239	-12811.5695	-12814.8302	-12820.3341	-12823.9340	-12828.5625	-12831.1339	-12835.1606
-12319.0668	-12325.5555	-12330.1292	-12334.4951	-12340.1960	-12344.5509	-12348.2384	-12352.4182	-12355.2522	-12360.4826	-12364.5639	-12368.3061	-12371.4027	-12375.3309	-12378.5370	-12382.8700	-12387.2359	-12390.1465	-12392.5319	-12396.5039	-12399.0424	-12400.2789	-12401.2527	-12400.9901	-12400.4539	-12399.9397	-12400.0600	-12397.2479	-12393.5933	-12394.5671	-12388.3848	-12399.5567	-12412.0197	-12424.5703	-12437.7226	-12448.2599	-12455.4379	-12464.1587	-12471.2710	-12477.1579	-12479.9919	-12486.0866	-12490.6932	-12496.6238	-12500.0487	-12505.7167	-12508.0364	-12512.4242	-12515.6740	-12519.3943	-12524.1869	-12527.2178	-12530.3801	-12533.1922	-12536.3326	-12540.1404	-12544.0358	-12548.2047	-12553.5882	-12555.4046	-12561.1711	-12563.5236	-12570.5156	-12574.6846	-12580.0243	-12584.5762	-12588.9530	-12591.5244	-12595.6386	-12599.3480	-12605.2348	-12609.8195	-12612.7739	-12618.2997	-12621.9324	-12625.3026	-12627.5785	-12632.6338	-12635.0957	-12640.1838	-12643.8932	-12649.1235	-12653.3471	-12656.4765	-12659.7701	-12663.9828	-12666.1275	-12667.0466	-12671.3578	-12672.4520	-12674.1042	-12674.3012	-12674.0605	-12669.4538	-12655.6231	-12623.3549	-12520.9699	-12338.1279	-12253.9615	-12164.2365	-12134.9555	-12300.2683	-12511.3409	-12640.8513	-12698.2534	-12721.2646	-12730.4997	-12742.8423	-12750.2063	-12759.1460	-12762.7897	-12767.1228	-12771.2151	-12776.4345	-12780.0782	-12783.8313	-12787.4203	-12793.1321	-12796.3709	-12801.3168	-12804.7635	-12807.6960	-12812.6309	-12817.2922	-12821.2204	-12824.1747	-12827.6434	-12831.0245
-12317.1191	-12322.9950	-12328.4551	-12334.9219	-12338.6750	-12343.5661	-12348.0524	-12351.4553	-12355.3945	-12359.4978	-12364.3670	-12367.2448	-12370.6040	-12374.6525	-12379.1935	-12382.5746	-12385.4524	-12390.2012	-12393.2978	-12397.2041	-12400.5087	-12402.5329	-12402.9269	-12404.1742	-12404.5135	-12404.8527	-12404.5791	-12405.6514	-12405.6624	-12405.8046	-12408.4526	-12417.0421	-12423.9466	-12432.5361	-12440.6442	-12449.2884	-12456.1272	-12463.1958	-12469.8814	-12475.4947	-12480.7906	-12486.5462	-12489.4020	-12493.4944	-12499.5235	-12502.3028	-12506.0449	-12508.4741	-12511.3190	-12514.1092	-12519.9633	-12521.9985	-12526.1455	-12526.8349	-12531.6384	-12535.3150	-12541.3112	-12544.8236	-12546.6947	-12550.8308	-12554.9122	-12561.0179	-12566.6312	-12570.7016	-12575.4724	-12581.2717	-12584.0729	-12587.6837	-12594.7085	-12598.7352	-12601.8428	-12606.9965	-12611.1764	-12616.4504	-12619.6674	-12621.5604	-12625.5214	-12630.3031	-12634.0234	-12639.2209	-12645.7643	-12647.5697	-12651.4104	-12652.9423	-12657.0127	-12660.2406	-12663.7421	-12666.4776	-12668.3378	-12670.6465	-12671.5000	-12673.0428	-12670.4824	-12664.2235	-12642.0330	-12562.9218	-12332.8976	-12150.2963	-12023.2917	-11927.6798	-11954.0065	-12131.1039	-12398.7251	-12593.6472	-12677.3868	-12714.6884	-12729.2523	-12740.5117	-12748.3462	-12755.7540	-12764.3216	-12766.1927	-12770.6461	-12772.9440	-12778.3493	-12782.2228	-12786.6872	-12789.2805	-12794.4014	-12797.5089	-12801.1636	-12805.9781	-12808.3087	-12813.3968	-12816.8217	-12819.2508	-12823.1134	-12826.5054
-12316.4517	-12322.1853	-12327.5469	-12333.7839	-12337.1978	-12343.2379	-12344.2883	-12350.0548	-12351.7289	-12356.6419	-12360.4935	-12365.0016	-12367.8794	-12372.5845	-12375.5717	-12379.7406	-12382.9576	-12386.5575	-12390.5404	-12395.7926	-12399.5458	-12401.1871	-12401.7889	-12402.5111	-12404.8964	-12406.0125	-12410.9583	-12412.0744	-12414.7333	-12416.3747	-12421.6597	-12425.3362	-12432.7002	-12439.2108	-12445.4368	-12452.3960	-12458.1843	-12464.6511	-12471.7525	-12477.0813	-12481.0861	-12486.5462	-12488.3078	-12493.7351	-12497.8274	-12502.4231	-12504.4693	-12508.1458	-12509.6230	-12511.5597	-12515.2253	-12518.2453	-12521.1669	-12522.4143	-12528.1151	-12529.0561	-12534.1004	-12538.5210	-12542.4054	-12547.6029	-12552.4722	-12558.8733	-12567.1674	-12570.1874	-12575.6693	-12579.0833	-12584.4011	-12588.2527	-12593.1001	-12597.4769	-12601.4817	-12606.1540	-12610.8809	-12614.1088	-12618.7811	-12622.0090	-12625.4995	-12630.4672	-12633.5967	-12638.8708	-12641.9126	-12646.0487	-12650.2396	-12653.6316	-12657.1002	-12660.6236	-12663.3153	-12664.7597	-12668.3268	-12670.2307	-12670.8982	-12672.1346	-12668.9286	-12658.4899	-12622.0747	-12513.8466	-12198.9776	-11957.2891	-11891.0130	-11899.3946	-11934.8360	-11986.7889	-12222.5249	-12490.5181	-12652.1544	-12704.8843	-12724.1095	-12737.1415	-12746.3328	-12754.8895	-12761.2907	-12766.7726	-12769.8911	-12772.3859	-12774.7494	-12779.2904	-12783.6453	-12786.9608	-12791.2938	-12794.5327	-12798.5812	-12803.1660	-12806.8644	-12809.6437	-12815.1694	-12818.5833	-12821.4392	-12824.0434
-12312.2390	-12318.4431	-12323.2576	-12328.7177	-12332.6131	-12337.4714	-12340.6883	-12345.0761	-12349.2232	-12351.8602	-12356.6966	-12360.6795	-12365.7566	-12368.9408	-12372.4751	-12375.6264	-12379.0294	-12383.0342	-12387.6736	-12390.8577	-12394.8297	-12397.6090	-12399.0752	-12402.1171	-12405.4873	-12408.7043	-12412.5887	-12416.4841	-12418.6287	-12422.4256	-12426.6602	-12431.1574	-12435.7312	-12441.4429	-12448.5334	-12453.2276	-12459.3113	-12465.3185	-12469.5641	-12473.0108	-12476.3482	-12480.5609	-12484.4453	-12489.7522	-12493.9321	-12496.2299	-12500.0159	-12501.0882	-12504.3817	-12505.1805	-12508.2443	-12511.8224	-12515.1269	-12516.3086	-12520.8605	-12525.1936	-12532.7436	-12533.5533	-12538.2803	-12542.5805	-12548.4345	-12557.4508	-12560.8319	-12566.6968	-12569.1807	-12575.5380	-12579.9039	-12583.8650	-12588.5044	-12593.1110	-12597.5535	-12601.1753	-12606.3400	-12610.4980	-12615.0499	-12618.9234	-12622.2716	-12627.0205	-12631.2660	-12634.9644	-12637.4702	-12639.9868	-12645.7205	-12649.1563	-12653.4456	-12655.9185	-12658.8072	-12663.0856	-12665.3287	-12667.1560	-12667.5609	-12669.2350	-12663.1512	-12653.4565	-12627.4035	-12538.2584	-12343.0737	-12170.7908	-12043.1296	-11910.4680	-11923.7516	-11955.6697	-12074.6975	-12314.0335	-12571.3253	-12700.6497	-12720.0938	-12734.5482	-12742.6125	-12750.8847	-12757.6032	-12762.2098	-12765.6347	-12768.6000	-12771.3792	-12776.3360	-12780.2423	-12783.4046	-12788.3613	-12791.5892	-12796.5241	-12799.5223	-12803.5161	-12807.9039	-12812.5871	-12815.2788	-12816.4168	-12819.9620
-12310.2475	-12314.6572	-12319.9312	-12324.3081	-12330.5669	-12333.7292	-12337.0228	-12340.7978	-12342.9096	-12348.8840	-12351.7836	-12358.3051	-12362.1786	-12365.7895	-12368.7766	-12372.5407	-12375.5936	-12380.4737	-12383.1764	-12386.9733	-12391.1094	-12394.6109	-12397.9920	-12401.1542	-12404.6885	-12407.5991	-12411.3194	-12413.4094	-12418.7710	-12423.8809	-12427.5793	-12431.5404	-12437.0552	-12441.5414	-12448.6975	-12453.3151	-12456.6196	-12460.5587	-12463.5788	-12468.9185	-12473.7002	-12477.9895	-12480.0247	-12485.5833	-12487.9905	-12491.9187	-12493.9758	-12497.2803	-12499.0639	-12500.0815	-12502.3356	-12504.4255	-12505.1367	-12508.2443	-12511.2752	-12514.6673	-12520.3462	-12525.5875	-12531.5071	-12533.0937	-12542.2851	-12546.9245	-12557.6368	-12558.8295	-12565.3838	-12571.4238	-12575.9429	-12579.5757	-12585.4953	-12589.7080	-12593.8988	-12597.5097	-12603.1449	-12608.1345	-12612.8614	-12616.2535	-12619.7987	-12624.1427	-12626.3968	-12629.8764	-12631.9772	-12637.4155	-12641.5187	-12646.2566	-12650.1958	-12654.0036	-12657.5926	-12660.5579	-12663.8953	-12664.1141	-12666.4119	-12665.0223	-12660.9956	-12654.0802	-12634.0672	-12580.0133	-12484.3359	-12383.9752	-12232.6135	-12168.4492	-12009.5375	-12037.8884	-12139.4418	-12280.8133	-12538.0396	-12698.2424	-12716.9315	-12728.6833	-12738.3123	-12746.4860	-12752.7996	-12758.5004	-12761.7721	-12764.0481	-12767.4729	-12771.7184	-12775.8436	-12780.8988	-12785.0021	-12789.6853	-12792.3771	-12796.7101	-12800.2007	-12803.5818	-12807.5209	-12809.8953	-12812.6199	-12815.6946
-12304.0433	-12309.4487	-12315.1386	-12320.2267	-12324.9099	-12328.7615	-12331.8690	-12335.6988	-12339.4628	-12342.1984	-12347.7460	-12350.7988	-12356.6966	-12360.4935	-12364.6296	-12366.1834	-12371.0854	-12375.0574	-12379.6202	-12384.1174	-12387.1484	-12391.4705	-12394.2388	-12397.1932	-12399.8521	-12404.6666	-12408.5511	-12411.5711	-12416.5388	-12422.4475	-12426.1022	-12430.5994	-12435.1513	-12439.6594	-12446.6076	-12449.4197	-12452.9431	-12456.8822	-12461.8499	-12464.9575	-12469.0170	-12471.7744	-12476.3591	-12480.5937	-12484.5766	-12484.9705	-12490.4634	-12491.4592	-12493.9539	-12493.7242	-12494.7855	-12494.6652	-12499.9064	-12497.7618	-12498.4183	-12502.9155	-12504.2614	-12510.3780	-12519.9085	-12526.5176	-12533.9144	-12539.6152	-12546.8479	-12554.5074	-12557.7243	-12564.5413	-12569.4214	-12575.5599	-12579.1161	-12583.5586	-12588.6138	-12594.0192	-12598.1991	-12603.8561	-12608.4518	-12610.6730	-12616.3520	-12619.1750	-12622.8844	-12625.1385	-12630.1171	-12633.3341	-12637.1419	-12641.0810	-12645.8518	-12649.4080	-12652.4280	-12655.9842	-12657.4176	-12658.8729	-12659.1574	-12660.4485	-12658.2601	-12654.8243	-12644.8670	-12606.3071	-12595.7809	-12507.5440	-12467.2006	-12343.9710	-12228.5102	-12184.2714	-12220.6976	-12273.2524	-12455.8974	-12678.7327	-12714.7540	-12724.8754	-12734.7999	-12739.5488	-12747.8100	-12752.1759	-12754.8786	-12758.6208	-12762.6912	-12766.8930	-12771.1713	-12775.4388	-12780.6253	-12783.2952	-12787.0921	-12791.4908	-12794.9047	-12796.8524	-12801.2949	-12804.5228	-12808.0571	-12811.7664
-12298.2112	-12303.4415	-12310.3679	-12314.9088	-12317.4036	-12322.9294	-12325.4679	-12329.5493	-12332.8867	-12337.9419	-12342.2640	-12347.2536	-12350.4924	-12354.8583	-12357.1562	-12362.2771	-12365.3408	-12369.9146	-12374.3790	-12378.3510	-12382.4761	-12386.0761	-12389.2383	-12391.1204	-12395.4315	-12399.1518	-12405.2575	-12408.1790	-12415.4118	-12417.6549	-12420.9484	-12424.1435	-12430.1617	-12433.7178	-12439.3421	-12443.1718	-12447.6033	-12453.3260	-12457.7685	-12460.3946	-12463.0317	-12465.1872	-12469.1373	-12475.1774	-12477.4971	-12479.5761	-12483.0556	-12484.5219	-12484.4453	-12488.4829	-12486.4805	-12486.3273	-12486.2945	-12480.8016	-12483.1432	-12475.9324	-12485.5067	-12494.0853	-12503.8784	-12513.1245	-12522.9395	-12534.3083	-12540.8736	-12543.9264	-12551.7281	-12557.5712	-12563.6878	-12569.0494	-12574.3454	-12578.2626	-12582.9568	-12587.3226	-12591.5135	-12597.6520	-12600.4422	-12605.1801	-12607.7624	-12613.0584	-12617.5775	-12622.5889	-12624.7336	-12629.1432	-12631.2988	-12635.8836	-12640.5887	-12643.6634	-12647.5806	-12650.4803	-12652.5265	-12653.2815	-12656.4109	-12655.2620	-12655.6012	-12653.7739	-12649.7143	-12641.0482	-12635.4021	-12602.3680	-12586.6990	-12515.1597	-12479.4776	-12466.6863	-12426.9447	-12408.0477	-12465.2310	-12610.1369	-12709.4143	-12722.5010	-12727.9064	-12735.0516	-12741.4198	-12747.5912	-12748.0617	-12753.3467	-12756.1479	-12760.0980	-12764.9891	-12770.4054	-12774.6290	-12776.9816	-12781.5991	-12784.7067	-12786.8951	-12790.9874	-12796.1302	-12798.5046	-12802.5532	-12804.8948
-12293.0575	-12299.5243	-12304.2403	-12308.4311	-12313.5848	-12316.6486	-12321.1677	-12324.2424	-12329.0569	-12332.8648	-12336.7930	-12340.3273	-12344.8682	-12348.8292	-12353.1733	-12357.0139	-12359.8479	-12363.7871	-12369.4769	-12373.0878	-12376.5674	-12381.3600	-12383.0451	-12388.3848	-12392.0942	-12397.3792	-12401.3074	-12408.3104	-12413.3765	-12414.5036	-12417.8409	-12421.0250	-12424.9423	-12429.9100	-12433.7069	-12439.1342	-12443.7298	-12448.1067	-12452.1443	-12453.7856	-12459.1691	-12460.3508	-12464.4869	-12468.5902	-12472.1902	-12474.4880	-12477.0375	-12478.5803	-12480.5171	-12481.2611	-12481.7535	-12476.7640	-12467.8790	-12456.1819	-12432.8097	-12427.1526	-12422.9071	-12451.1267	-12476.5013	-12496.4706	-12509.8747	-12522.8848	-12531.3102	-12540.1295	-12545.5677	-12550.9293	-12560.3176	-12564.5413	-12570.6798	-12575.1551	-12578.3392	-12583.0334	-12588.0667	-12592.4107	-12598.4617	-12601.4051	-12605.2786	-12608.1454	-12615.4109	-12618.2121	-12621.4947	-12623.9239	-12628.1913	-12632.6885	-12636.4307	-12640.1838	-12644.1886	-12646.4536	-12648.2919	-12650.4475	-12653.7410	-12653.8504	-12654.7586	-12654.1021	-12651.8480	-12649.1891	-12645.1953	-12639.9431	-12631.6271	-12606.6354	-12606.6245	-12597.3565	-12607.0184	-12589.7518	-12611.3843	-12671.5875	-12709.2502	-12718.7369	-12726.1119	-12730.0182	-12738.9141	-12740.0959	-12744.8338	-12746.9347	-12752.5042	-12755.9290	-12760.6451	-12763.9824	-12769.4316	-12772.1342	-12776.1172	-12778.7980	-12781.1286	-12784.4660	-12788.1644	-12793.2524	-12795.1673	-12799.9162
-12289.8734	-12295.7274	-12300.5857	-12304.9078	-12308.9892	-12312.8627	-12316.1453	-12321.1786	-12326.4308	-12330.8514	-12332.4599	-12335.9395	-12339.4738	-12345.3497	-12348.8730	-12352.6152	-12354.3988	-12361.4126	-12366.7305	-12370.3961	-12374.7620	-12378.4057	-12382.8372	-12385.1460	-12387.7064	-12375.9546	-12378.0555	-12395.0923	-12412.9060	-12413.3437	-12416.0683	-12419.4822	-12424.0232	-12428.5313	-12431.8249	-12436.8473	-12440.7755	-12445.2727	-12448.4459	-12451.2799	-12456.3898	-12459.3661	-12462.1235	-12466.1939	-12468.3386	-12472.3871	-12474.5318	-12476.7202	-12476.9609	-12475.6807	-12472.0370	-12460.6901	-12440.7427	-12385.8572	-12342.8986	-12320.6425	-12294.5347	-12333.0836	-12422.3600	-12460.7010	-12495.6390	-12512.2491	-12526.9990	-12534.1770	-12542.5586	-12550.5901	-12556.6411	-12561.1820	-12565.6902	-12572.3867	-12576.1617	-12580.0133	-12584.4777	-12590.2551	-12593.6472	-12598.2647	-12602.8823	-12606.0227	-12610.0165	-12614.3933	-12617.4681	-12621.4072	-12625.5871	-12630.1280	-12633.9578	-12638.1814	-12640.4136	-12644.2761	-12647.0664	-12647.2633	-12649.2548	-12650.1520	-12651.8918	-12651.8699	-12651.2462	-12649.4298	-12650.0535	-12650.0317	-12649.3204	-12646.5630	-12650.1739	-12657.0127	-12664.0156	-12680.7132	-12690.4189	-12698.3737	-12710.9899	-12718.7369	-12722.9496	-12729.2960	-12733.2571	-12736.7038	-12739.1111	-12745.0088	-12748.9371	-12752.9419	-12755.7758	-12759.7588	-12763.7307	-12767.1118	-12772.0467	-12772.9549	-12776.4782	-12779.1153	-12783.1091	-12786.6106	-12791.6330	-12793.7448
-12289.9500	-12294.7645	-12298.8130	-12302.7303	-12308.5077	-12311.6590	-12315.1933	-12318.7714	-12323.0278	-12325.1178	-12330.5560	-12331.8690	-12336.2787	-12340.8415	-12344.6603	-12349.9344	-12352.3745	-12356.8936	-12361.2047	-12367.2885	-12370.3632	-12376.3157	-12380.0251	-12384.8068	-12388.4067	-12393.1556	-12387.4110	-12384.6317	-12409.2295	-12411.4070	-12414.0002	-12417.5892	-12420.7624	-12425.4785	-12430.2273	-12434.9105	-12439.3092	-12442.6575	-12447.0891	-12450.4811	-12454.4312	-12456.4883	-12460.1867	-12462.1782	-12465.7343	-12468.1416	-12469.8486	-12470.0674	-12472.3434	-12469.6407	-12465.2091	-12452.5054	-12385.1679	-12306.1005	-12197.2706	-12104.1536	-12008.8044	-12119.0895	-12253.3487	-12408.8027	-12483.5809	-12507.4784	-12522.3158	-12534.6913	-12543.9154	-12549.7804	-12554.3761	-12560.3614	-12565.9309	-12571.9053	-12576.9058	-12580.2541	-12587.3117	-12593.8113	-12597.2362	-12597.3128	-12603.1121	-12605.7819	-12609.3272	-12613.3429	-12617.7854	-12621.5057	-12625.3026	-12629.1214	-12634.2094	-12636.6057	-12638.6629	-12642.9850	-12643.2804	-12645.4579	-12647.9746	-12650.6663	-12652.3623	-12654.1897	-12652.8875	-12653.7410	-12656.0498	-12658.6540	-12658.6868	-12661.7616	-12663.7421	-12668.7098	-12677.1352	-12685.0463	-12695.5507	-12702.6630	-12711.2197	-12716.0890	-12722.2384	-12726.6043	-12729.7447	-12733.3227	-12737.8199	-12741.3104	-12745.6435	-12748.4009	-12752.7777	-12754.9005	-12758.3472	-12762.2645	-12765.3720	-12768.9829	-12769.8036	-12773.6552	-12777.0472	-12782.0149	-12783.7985	-12789.4227
-12290.6393	-12296.6137	-12299.5790	-12304.1418	-12307.6323	-12311.5934	-12314.9417	-12318.8370	-12322.8309	-12327.3609	-12328.2582	-12334.0575	-12337.4276	-12341.5199	-12346.1813	-12349.9235	-12353.4577	-12356.4121	-12362.0801	-12366.3913	-12372.5626	-12377.4975	-12381.8196	-12386.1417	-12391.7878	-12395.4862	-12398.0905	-12403.7366	-12407.5663	-12410.9802	-12414.7115	-12418.6834	-12421.9332	-12427.7435	-12431.7373	-12436.8910	-12439.5390	-12443.6861	-12447.6580	-12451.6300	-12454.0482	-12457.8889	-12461.0730	-12463.6116	-12466.1392	-12469.1264	-12470.4941	-12471.6212	-12473.2078	-12469.6078	-12459.0597	-12437.0442	-12339.8896	-12154.7935	-11908.3561	-11824.9666	-11766.5250	-11852.5078	-12094.8856	-12307.5120	-12456.8822	-12504.4365	-12529.3953	-12534.1879	-12547.1434	-12554.9341	-12558.4137	-12563.3705	-12569.4871	-12574.5533	-12578.1313	-12583.0334	-12587.3883	-12592.7171	-12596.9407	-12599.6325	-12603.2324	-12607.1935	-12611.0122	-12615.4875	-12619.4486	-12622.1184	-12626.1014	-12628.4539	-12632.6557	-12635.2380	-12640.0634	-12642.1534	-12645.0093	-12648.1934	-12651.4651	-12653.1939	-12655.6559	-12656.8048	-12657.6364	-12658.2273	-12662.6041	-12665.0223	-12667.8344	-12668.9614	-12673.2726	-12678.4154	-12685.5059	-12692.1258	-12696.9075	-12705.0375	-12712.3468	-12718.2774	-12722.8730	-12726.7903	-12728.0924	-12732.9945	-12736.6929	-12741.8685	-12743.7177	-12747.4927	-12749.5936	-12752.9966	-12755.6117	-12757.6251	-12762.6146	-12764.1028	-12765.9848	-12768.4796	-12771.9701	-12775.2090	-12779.3451	-12783.5578
-12296.1760	-12300.9686	-12305.3564	-12308.0044	-12311.5387	-12313.8146	-12317.0644	-12319.6139	-12324.2971	-12326.8357	-12331.2344	-12332.4599	-12337.7778	-12342.2093	-12346.9910	-12350.1751	-12355.1975	-12359.0382	-12365.8113	-12369.4113	-12375.5388	-12379.6202	-12384.1065	-12390.1465	-12394.0747	-12398.1233	-12401.8436	-12406.4940	-12410.4659	-12414.9412	-12419.6245	-12423.9685	-12427.3386	-12432.0437	-12435.6108	-12440.5785	-12445.0538	-12448.4130	-12452.1334	-12455.6458	-12460.2414	-12463.4365	-12467.6711	-12470.0346	-12473.2953	-12474.4880	-12476.7311	-12477.3986	-12476.4248	-12470.6145	-12456.1491	-12407.6757	-12165.7246	-11919.6484	-11727.4728	-11677.5878	-11674.4584	-11734.3772	-11977.7070	-12239.8572	-12421.2658	-12496.7332	-12522.3267	-12538.6851	-12546.2680	-12555.9736	-12561.5103	-12569.4433	-12572.5946	-12579.0504	-12580.5714	-12584.6966	-12588.2856	-12593.9535	-12598.8337	-12601.3394	-12605.0926	-12608.2986	-12611.5484	-12614.1964	-12620.0176	-12622.7750	-12626.8126	-12630.4454	-12632.3164	-12635.8179	-12639.1552	-12643.0616	-12647.3946	-12649.5721	-12652.3733	-12653.4456	-12655.9842	-12660.3172	-12660.5798	-12662.8667	-12666.8387	-12670.4386	-12672.9991	-12676.5881	-12679.6300	-12685.5934	-12690.3313	-12695.2334	-12700.1245	-12705.7049	-12712.5437	-12718.1679	-12722.1071	-12724.9739	-12727.9939	-12732.0316	-12735.8285	-12738.5311	-12743.5098	-12744.5055	-12747.8428	-12751.2568	-12752.5261	-12755.0427	-12757.2311	-12759.9229	-12762.4724	-12763.1727	-12765.6347	-12770.8868	-12775.2090	-12779.3888
-12296.1541	-12300.4872	-12304.5029	-12307.5558	-12311.1557	-12311.9982	-12314.4274	-12317.6772	-12319.8109	-12322.2291	-12325.3476	-12327.7110	-12333.0945	-12335.9176	-12339.5723	-12346.2360	-12350.4268	-12355.6680	-12361.3579	-12368.4593	-12373.2629	-12378.7996	-12383.1217	-12387.9472	-12394.1513	-12398.2984	-12401.7232	-12407.0301	-12411.1662	-12415.3899	-12420.2810	-12424.2639	-12427.4699	-12430.8073	-12435.1513	-12438.1932	-12443.1827	-12447.1875	-12451.4987	-12454.4312	-12457.2542	-12460.7885	-12465.3404	-12468.9075	-12471.5555	-12474.0831	-12474.7397	-12477.2673	-12472.6935	-12467.3975	-12445.7869	-12399.6005	-12252.5609	-12040.9741	-11818.6312	-11774.4908	-11675.3994	-11703.7722	-11882.3250	-12103.0703	-12292.9153	-12472.7044	-12520.0070	-12531.9995	-12545.3160	-12553.5007	-12561.2149	-12565.0665	-12571.0956	-12575.8882	-12580.3416	-12583.9963	-12588.5919	-12591.4916	-12595.6058	-12599.5121	-12603.3747	-12605.9461	-12609.5898	-12613.1022	-12615.2468	-12620.0285	-12622.5561	-12626.1889	-12628.1256	-12633.6952	-12636.6714	-12642.5145	-12644.5825	-12647.4056	-12648.8499	-12651.7277	-12654.7915	-12657.8881	-12661.0394	-12665.5038	-12668.9943	-12671.9158	-12675.3735	-12678.1637	-12682.3983	-12686.7970	-12692.1477	-12696.6449	-12700.2995	-12704.2606	-12709.8739	-12713.8458	-12717.2160	-12722.1290	-12724.8864	-12728.6942	-12733.4321	-12736.9993	-12739.7785	-12743.0174	-12743.7067	-12746.7815	-12747.8538	-12751.2239	-12751.8039	-12753.1388	-12755.1959	-12755.5461	-12757.5594	-12762.7022	-12766.2036	-12770.7446
-12290.1250	-12294.8520	-12298.5067	-12301.4938	-12304.1418	-12306.1442	-12308.9454	-12311.8232	-12313.2566	-12314.0006	-12318.6729	-12320.8504	-12325.5226	-12329.7463	-12333.3243	-12337.3072	-12344.6056	-12349.1794	-12356.4559	-12362.7804	-12367.3870	-12370.6477	-12379.4452	-12382.8700	-12389.5009	-12394.7641	-12397.6090	-12403.0582	-12406.1657	-12412.1948	-12416.6263	-12421.0141	-12423.2791	-12427.4918	-12431.1683	-12435.7531	-12439.1998	-12444.3535	-12447.5158	-12449.9449	-12453.8075	-12458.5892	-12462.8456	-12465.8328	-12469.1483	-12470.8224	-12472.8029	-12473.5689	-12470.2206	-12464.5088	-12442.9311	-12397.6309	-12327.2624	-12130.0972	-11980.1580	-11906.7805	-11817.1868	-11717.4498	-11807.7657	-12018.8164	-12284.0412	-12468.4699	-12512.6211	-12529.9424	-12541.4316	-12549.4850	-12555.0107	-12561.4884	-12566.4233	-12572.4524	-12575.8444	-12580.2541	-12583.5367	-12586.5676	-12589.4782	-12594.1067	-12598.5383	-12602.1710	-12604.5564	-12608.6050	-12610.6293	-12613.7915	-12617.9605	-12620.2692	-12624.7883	-12628.8369	-12632.3821	-12635.9930	-12640.7418	-12643.4445	-12645.9503	-12649.1125	-12652.5702	-12655.8091	-12657.9756	-12662.6916	-12665.8977	-12669.6946	-12673.7650	-12679.6628	-12682.7922	-12688.1867	-12690.0578	-12692.7386	-12695.8024	-12703.2867	-12707.2368	-12709.2173	-12713.2221	-12718.0695	-12722.0196	-12725.3022	-12730.0510	-12733.9355	-12736.4084	-12738.1263	-12741.1682	-12741.8904	-12743.7615	-12744.3852	-12745.6763	-12745.5669	-12747.0988	-12746.5298	-12745.9718	-12747.3614	-12752.0008	-12759.3648
-12283.4941	-12287.8491	-12291.9633	-12294.5785	-12296.5480	-12298.8896	-12300.7060	-12302.3145	-12303.8792	-12304.0652	-12306.2536	-12311.5058	-12313.5630	-12315.4122	-12323.8704	-12329.0022	-12333.9480	-12341.5637	-12347.2098	-12352.7356	-12358.5349	-12365.3299	-12370.0022	-12377.1473	-12382.4871	-12388.0128	-12392.2693	-12396.4163	-12400.2132	-12406.2314	-12409.8860	-12413.4860	-12417.8409	-12421.0469	-12425.7520	-12430.3149	-12433.4115	-12436.5628	-12441.0053	-12443.9596	-12447.8003	-12451.8817	-12455.8208	-12460.1429	-12463.1411	-12466.2049	-12467.4741	-12467.9775	-12464.6401	-12459.3223	-12450.9844	-12426.3319	-12379.2373	-12314.8651	-12243.2820	-12113.2574	-11973.1113	-11929.6494	-11899.2633	-11940.7994	-12141.4770	-12407.3256	-12512.6649	-12521.5827	-12534.8554	-12542.8212	-12549.7366	-12555.1639	-12560.6678	-12565.8434	-12570.3953	-12570.0561	-12574.6846	-12578.1751	-12583.4273	-12587.6071	-12590.5834	-12593.0125	-12597.3784	-12599.0963	-12602.9370	-12607.6968	-12611.2748	-12614.0760	-12616.8772	-12622.7093	-12624.5585	-12631.6380	-12633.7170	-12637.4702	-12639.7352	-12643.9260	-12647.5697	-12650.6991	-12654.9994	-12659.8795	-12661.9695	-12665.4162	-12670.6246	-12676.2598	-12679.0282	-12681.7308	-12685.2761	-12687.3222	-12692.5197	-12695.4631	-12702.0612	-12704.5341	-12709.5237	-12712.6969	-12716.8877	-12720.4658	-12723.5186	-12728.7161	-12731.2547	-12732.6662	-12733.9026	-12735.8941	-12736.8789	-12738.8485	-12739.0345	-12737.3056	-12730.3684	-12728.2675	-12720.7722	-12723.3873	-12727.4578	-12739.2971
-12275.0140	-12279.7738	-12281.6340	-12285.5184	-12286.4047	-12288.9433	-12289.6873	-12292.2369	-12291.4490	-12292.7949	-12289.3591	-12290.9785	-12290.9457	-12298.7912	-12307.2494	-12313.4426	-12321.2990	-12331.2125	-12336.5522	-12343.6318	-12350.4487	-12355.7118	-12363.5901	-12368.7657	-12375.7686	-12380.0689	-12384.5442	-12389.9933	-12394.8735	-12398.9002	-12404.0211	-12406.9317	-12410.5644	-12414.0659	-12416.6154	-12423.3010	-12427.0104	-12430.5228	-12432.9628	-12436.8910	-12439.7907	-12444.9335	-12448.8398	-12452.3960	-12454.7594	-12456.8056	-12458.3266	-12460.5369	-12459.3661	-12457.1011	-12452.3194	-12443.2265	-12428.5422	-12389.6541	-12369.5316	-12295.6945	-12191.6354	-12166.5234	-12142.9323	-12101.1445	-12137.2424	-12343.7084	-12498.7903	-12518.5080	-12527.8306	-12533.9253	-12542.0553	-12547.2418	-12553.2381	-12556.8709	-12560.3942	-12563.6987	-12566.6859	-12570.7673	-12574.4876	-12579.3349	-12582.1689	-12586.6442	-12588.8327	-12592.3560	-12596.8094	-12600.8908	-12605.4755	-12608.9551	-12611.5046	-12614.6450	-12619.3063	-12624.3287	-12629.4277	-12632.0757	-12634.6690	-12638.3784	-12642.4816	-12645.0858	-12650.0864	-12653.2815	-12657.8224	-12661.1488	-12664.5190	-12668.2721	-12673.1851	-12675.6799	-12679.7394	-12683.1861	-12686.7314	-12691.7976	-12696.7434	-12700.6825	-12703.8010	-12708.7249	-12711.1869	-12717.3692	-12720.2032	-12724.9192	-12728.0049	-12729.1866	-12730.7294	-12731.2218	-12732.4364	-12730.9483	-12729.2741	-12721.7022	-12710.2021	-12688.9854	-12670.8216	-12656.2577	-12672.0690	-12707.2587
-12268.5473	-12273.2742	-12274.9703	-12277.6073	-12280.4304	-12283.5817	-12283.2315	-12280.9993	-12277.5745	-12272.4755	-12268.4597	-12262.2884	-12257.6708	-12259.9468	-12283.3738	-12298.1018	-12307.5667	-12320.1173	-12328.3019	-12336.9024	-12339.6270	-12347.0019	-12354.5738	-12362.8242	-12366.7961	-12373.4599	-12376.3376	-12382.6512	-12386.3058	-12393.7027	-12396.0443	-12398.5063	-12402.8721	-12405.7718	-12410.5535	-12416.3309	-12419.9746	-12422.5132	-12426.4851	-12429.5817	-12433.8820	-12438.1275	-12442.5700	-12444.0362	-12448.4349	-12449.8793	-12451.2908	-12451.6738	-12453.8294	-12453.0415	-12451.3018	-12447.8769	-12440.0095	-12431.3872	-12419.1102	-12383.9314	-12353.6547	-12332.3943	-12364.4217	-12293.0685	-12343.4895	-12289.3481	-12452.5820	-12512.9713	-12520.5979	-12525.2154	-12534.4834	-12540.1076	-12544.9878	-12549.7476	-12551.6734	-12555.0873	-12559.6283	-12563.9176	-12567.3205	-12571.7193	-12575.9429	-12579.2802	-12583.4163	-12586.6442	-12590.3536	-12594.0848	-12598.6039	-12601.4379	-12604.5674	-12607.2810	-12612.7520	-12615.6517	-12620.3568	-12623.4643	-12627.6223	-12632.7432	-12635.8945	-12639.6914	-12643.8385	-12650.7538	-12652.6140	-12657.2097	-12660.6564	-12665.4381	-12669.1037	-12672.4410	-12676.3911	-12679.8379	-12684.1600	-12688.5149	-12692.8699	-12696.8637	-12700.3105	-12704.4904	-12708.6265	-12712.4343	-12716.2640	-12719.4919	-12721.9101	-12724.0329	-12725.1380	-12727.6328	-12726.4949	-12723.4420	-12717.0300	-12704.1402	-12672.0143	-12628.4211	-12544.6705	-12532.0871	-12552.0454	-12636.1571
-12265.7352	-12268.6239	-12271.7314	-12272.3332	-12277.9684	-12275.9332	-12273.6791	-12269.6086	-12261.5881	-12241.6954	-12226.5297	-12196.6797	-12166.8516	-12205.0723	-12234.0579	-12270.9655	-12290.7487	-12308.7047	-12319.1325	-12330.9390	-12338.4671	-12344.6166	-12353.1733	-12360.2090	-12365.4831	-12370.9651	-12373.0331	-12378.5370	-12385.0913	-12389.8401	-12393.8668	-12397.0400	-12401.0229	-12403.0472	-12407.6757	-12411.6805	-12416.5388	-12419.9308	-12424.1654	-12427.1745	-12430.8838	-12436.1032	-12439.5828	-12442.9311	-12445.8088	-12448.0410	-12449.4307	-12450.2294	-12450.7218	-12452.6476	-12452.6695	-12451.2033	-12448.1723	-12444.4411	-12443.5767	-12436.9895	-12425.6426	-12414.6239	-12438.7731	-12462.3314	-12478.1645	-12486.1413	-12499.7751	-12508.1786	-12515.9803	-12523.3772	-12529.6579	-12535.7198	-12540.3812	-12544.7252	-12547.2418	-12549.7366	-12554.9451	-12558.5122	-12562.7686	-12568.2178	-12570.7345	-12575.4067	-12578.4815	-12581.8735	-12584.7294	-12588.3512	-12590.8788	-12595.0368	-12598.3960	-12603.8780	-12605.6506	-12612.4238	-12614.6450	-12619.8972	-12623.5300	-12628.9682	-12631.8788	-12636.7918	-12640.8513	-12644.1229	-12648.1825	-12652.5593	-12656.8705	-12660.6126	-12665.9852	-12668.7207	-12673.1632	-12677.0805	-12680.6695	-12685.0463	-12688.7557	-12693.1325	-12696.6558	-12701.2953	-12704.5560	-12709.0423	-12712.3577	-12715.8263	-12717.8178	-12719.5685	-12722.4463	-12722.9059	-12720.2688	-12716.4172	-12711.1869	-12684.6743	-12603.9765	-12500.6614	-12350.6019	-12281.9513	-12226.9017	-12413.6173
-12266.3807	-12269.9369	-12272.1472	-12274.1824	-12276.8851	-12275.5393	-12271.5673	-12263.4701	-12244.4966	-12208.6613	-12141.6192	-12085.6834	-12010.6864	-12067.9681	-12133.0625	-12226.5407	-12278.9204	-12303.3102	-12315.0730	-12328.7615	-12338.8501	-12345.9187	-12353.3374	-12359.0929	-12366.7305	-12371.1730	-12374.1711	-12378.3728	-12383.8767	-12389.4134	-12392.4991	-12396.9744	-12400.4430	-12404.4806	-12407.4350	-12412.9060	-12415.2695	-12420.3466	-12422.8852	-12427.1417	-12431.3872	-12435.3482	-12438.9591	-12441.7384	-12445.6338	-12446.2903	-12449.0149	-12450.4483	-12452.6039	-12453.4136	-12453.8513	-12452.9649	-12454.2999	-12455.6895	-12455.1205	-12452.8227	-12455.0221	-12457.7576	-12466.2814	-12475.5384	-12487.8154	-12494.1400	-12504.5349	-12509.7543	-12517.6435	-12522.9395	-12529.5485	-12535.2931	-12539.0791	-12542.1866	-12544.1562	-12550.0868	-12553.7524	-12556.2362	-12559.2344	-12564.0707	-12568.0318	-12572.1679	-12574.1812	-12576.4025	-12578.3720	-12582.1033	-12587.3664	-12590.5506	-12596.5140	-12597.9255	-12604.5783	-12607.9047	-12614.1854	-12617.8401	-12622.4576	-12627.0205	-12630.2593	-12634.9973	-12638.0282	-12642.5254	-12646.5083	-12650.0973	-12655.4042	-12659.1574	-12663.0308	-12666.3025	-12669.9681	-12675.0671	-12679.5753	-12682.9782	-12686.8627	-12690.4954	-12693.4060	-12698.6473	-12702.6849	-12706.8429	-12709.8520	-12712.9376	-12714.7321	-12716.0999	-12719.5466	-12717.9819	-12715.4871	-12709.8410	-12696.3057	-12664.9348	-12513.8248	-12311.3417	-12176.0430	-12077.0829	-12058.1093	-12174.5658
-12272.0816	-12276.0754	-12278.2310	-12279.3143	-12280.2991	-12278.8547	-12274.5107	-12263.9844	-12231.9023	-12166.2170	-11956.2496	-11895.7509	-11781.3406	-11805.6867	-11906.2771	-12121.1028	-12248.2060	-12290.9347	-12317.1738	-12334.0027	-12342.0780	-12352.9216	-12359.5962	-12367.4964	-12372.3547	-12375.9656	-12379.5436	-12386.2074	-12389.1070	-12393.2869	-12396.8868	-12401.5153	-12404.3603	-12409.1201	-12411.3741	-12414.9522	-12420.1059	-12423.0493	-12427.4371	-12430.2820	-12435.7312	-12438.3245	-12442.9201	-12445.2398	-12448.3474	-12450.4045	-12453.0525	-12455.3284	-12458.0858	-12459.4645	-12460.0882	-12461.2700	-12463.6335	-12465.8875	-12466.3252	-12468.0431	-12467.6054	-12474.6193	-12479.0071	-12485.4082	-12494.3588	-12501.5149	-12509.1087	-12515.1597	-12518.8800	-12524.5699	-12530.7850	-12535.9715	-12540.6547	-12544.3641	-12546.3336	-12548.4674	-12552.8770	-12556.4769	-12560.7772	-12563.7972	-12567.7145	-12569.4214	-12572.3867	-12574.3016	-12576.3040	-12578.5909	-12582.5519	-12588.8655	-12591.5682	-12595.9012	-12600.0155	-12606.3619	-12610.6183	-12616.0894	-12619.6127	-12624.5148	-12628.1803	-12633.6076	-12636.6276	-12641.5187	-12644.9874	-12648.7733	-12653.7520	-12657.1112	-12661.2801	-12664.4314	-12668.4472	-12673.1632	-12675.7565	-12679.8926	-12686.5016	-12689.7514	-12693.8218	-12696.5792	-12701.3062	-12704.0527	-12707.9809	-12710.5523	-12712.1717	-12713.6270	-12716.2203	-12716.5376	-12711.8981	-12705.3876	-12685.1667	-12638.8489	-12432.3501	-12192.4452	-11994.8970	-11965.4519	-11979.1295	-12068.4277
-12279.3361	-12281.3057	-12283.3409	-12284.1288	-12283.3191	-12283.6802	-12275.4845	-12259.3888	-12214.5153	-11995.7724	-11826.5970	-11633.5351	-11597.8092	-11580.7177	-11736.7516	-11938.0858	-12179.9821	-12286.3610	-12323.0169	-12339.3096	-12348.7527	-12358.2066	-12368.0326	-12374.6197	-12380.5503	-12382.2682	-12386.2730	-12391.3611	-12396.2303	-12398.7798	-12402.7408	-12406.1219	-12409.4155	-12413.0154	-12415.6744	-12419.1649	-12423.2682	-12428.2577	-12430.9604	-12435.3810	-12438.8059	-12443.5110	-12446.6951	-12451.2908	-12452.3960	-12456.2366	-12458.4250	-12461.2262	-12463.2833	-12465.9204	-12467.1459	-12468.9294	-12470.5489	-12473.1202	-12477.1579	-12479.8059	-12482.9572	-12486.3820	-12492.0391	-12496.0986	-12503.1891	-12508.9446	-12515.3019	-12519.6569	-12525.1607	-12530.2488	-12533.9035	-12536.1575	-12540.2827	-12544.4954	-12549.2333	-12552.1877	-12555.7001	-12558.6982	-12561.4337	-12565.2744	-12567.9005	-12570.0013	-12569.6074	-12572.6056	-12573.0980	-12577.2341	-12578.9848	-12586.1518	-12591.2509	-12595.1134	-12598.8665	-12605.3442	-12611.4937	-12615.0389	-12619.4814	-12626.6485	-12629.8435	-12633.5638	-12637.7656	-12640.1729	-12645.2609	-12649.8456	-12653.7301	-12659.0589	-12663.6436	-12664.9567	-12669.3007	-12672.6052	-12675.8659	-12681.4573	-12685.6700	-12689.5982	-12691.8632	-12696.6668	-12700.2558	-12704.4466	-12705.4095	-12708.4733	-12710.3444	-12711.4057	-12712.1060	-12714.2069	-12709.5237	-12704.4794	-12680.8992	-12617.6103	-12433.8273	-12228.6853	-12066.4581	-12016.1246	-11970.6494	-12014.0237
-12283.3628	-12287.6850	-12288.8776	-12289.9171	-12290.1031	-12286.1749	-12277.2790	-12249.3658	-12188.1449	-11926.1698	-11677.3909	-11501.9566	-11481.5278	-11495.4899	-11633.9290	-11874.5561	-12128.7951	-12271.7642	-12314.5915	-12336.7273	-12349.5843	-12360.6467	-12370.4289	-12376.1954	-12381.6773	-12387.1046	-12388.9867	-12396.5805	-12399.4363	-12402.5329	-12406.4393	-12411.9322	-12413.0373	-12415.3899	-12418.0926	-12424.7563	-12427.3277	-12431.2668	-12436.8363	-12437.0442	-12440.4144	-12443.4016	-12447.8769	-12450.4483	-12456.4555	-12460.2086	-12462.8019	-12464.8480	-12466.1173	-12470.3738	-12473.7111	-12474.9804	-12477.9348	-12479.9919	-12482.4101	-12486.1085	-12489.7741	-12493.2865	-12497.0396	-12502.2918	-12507.9707	-12512.7634	-12517.8624	-12523.5304	-12526.7802	-12530.9819	-12534.8554	-12539.8778	-12543.1823	-12548.2157	-12548.7847	-12552.8551	-12556.6192	-12559.0155	-12561.7948	-12563.9723	-12567.3096	-12567.7801	-12568.4147	-12569.8700	-12570.9314	-12571.0956	-12577.3325	-12584.0181	-12587.7822	-12591.6010	-12597.2471	-12602.3023	-12609.9290	-12615.4875	-12621.4838	-12626.8673	-12630.2812	-12635.4897	-12641.6829	-12644.9983	-12648.9156	-12653.5878	-12657.8552	-12662.2211	-12665.1536	-12667.3201	-12669.9025	-12673.2398	-12677.3540	-12684.4882	-12689.2590	-12691.2833	-12693.5592	-12695.7367	-12700.7044	-12702.1925	-12706.0004	-12710.4428	-12713.4410	-12713.8349	-12714.5133	-12714.6665	-12711.9528	-12702.5098	-12683.5691	-12633.5638	-12524.1431	-12392.2802	-12268.6786	-12156.2816	-12109.4933	-12035.9954
-12284.8400	-12286.9737	-12288.5275	-12288.4509	-12287.9585	-12282.5750	-12272.5302	-12242.5817	-12148.1845	-11976.0219	-11740.5595	-11635.2639	-11536.8181	-11491.8899	-11572.8175	-11691.7141	-11935.0767	-12204.3064	-12300.1699	-12337.6355	-12347.3630	-12359.2133	-12367.6934	-12375.0027	-12379.0184	-12384.0080	-12388.8006	-12391.9738	-12397.0838	-12398.2984	-12402.2156	-12405.1590	-12410.0283	-12412.4136	-12415.7181	-12420.0621	-12423.1150	-12428.2577	-12430.5009	-12434.3415	-12437.0552	-12440.1518	-12444.8569	-12447.9754	-12454.0044	-12456.5977	-12458.8190	-12462.3642	-12464.1915	-12469.1920	-12469.7282	-12473.8424	-12476.9828	-12481.0642	-12483.4933	-12487.9796	-12490.4744	-12493.8117	-12497.4007	-12502.7951	-12507.5331	-12511.1987	-12517.3262	-12520.7730	-12524.7231	-12528.2464	-12533.1922	-12535.7964	-12541.1362	-12543.5762	-12546.3884	-12549.3974	-12552.7348	-12554.3980	-12557.9322	-12557.7900	-12558.8186	-12561.9918	-12562.0465	-12561.9918	-12562.4294	-12565.1540	-12567.2768	-12569.8591	-12578.4924	-12583.0771	-12589.4126	-12597.5644	-12604.5017	-12610.2463	-12615.3672	-12622.8406	-12626.9658	-12631.8569	-12636.3322	-12641.6172	-12644.1011	-12648.2700	-12652.2201	-12659.1902	-12663.9828	-12668.1846	-12670.8873	-12675.1547	-12678.6342	-12682.6062	-12687.1034	-12687.8912	-12691.6115	-12693.9641	-12697.1811	-12701.1749	-12704.2606	-12707.9152	-12710.5851	-12714.0537	-12713.4191	-12713.4300	-12711.5480	-12705.0922	-12692.5197	-12674.3887	-12620.7835	-12555.2514	-12493.5819	-12369.7067	-12254.4648	-12223.1924
-12276.1848	-12279.7082	-12281.4917	-12283.2862	-12280.5726	-12277.6948	-12269.7400	-12247.9433	-12189.9722	-12095.6078	-11942.8127	-11843.4806	-11694.2526	-11626.6197	-11560.7265	-11690.1493	-11945.0996	-12192.5655	-12303.2774	-12329.9542	-12342.6689	-12352.5386	-12360.2418	-12368.0764	-12372.4641	-12376.9941	-12381.8962	-12386.2511	-12389.3587	-12391.6237	-12393.9762	-12401.6904	-12405.6077	-12408.4964	-12410.9146	-12413.8689	-12417.3047	-12422.5569	-12423.8372	-12428.3891	-12431.6498	-12434.7573	-12439.2545	-12443.0295	-12447.2860	-12451.4331	-12454.7923	-12456.5321	-12461.5545	-12463.5022	-12466.2814	-12469.1920	-12474.7068	-12476.9171	-12481.6988	-12484.8720	-12489.6647	-12492.2360	-12496.8536	-12501.1867	-12504.1410	-12509.6011	-12513.6278	-12519.0769	-12522.1736	-12526.1893	-12529.5047	-12532.3606	-12534.2317	-12538.0614	-12541.9568	-12545.5349	-12546.5197	-12550.5901	-12550.6339	-12554.0369	-12551.9798	-12554.2229	-12552.5378	-12553.4569	-12547.9640	-12544.7252	-12548.7628	-12552.7785	-12561.4665	-12570.1327	-12581.0638	-12590.4849	-12598.6586	-12605.4537	-12613.0584	-12619.1860	-12624.7664	-12629.8107	-12635.0848	-12638.8489	-12643.1163	-12646.7490	-12651.7277	-12655.1854	-12659.8795	-12663.8296	-12666.4776	-12669.4976	-12675.6908	-12678.4482	-12679.6956	-12684.7290	-12687.4207	-12691.3927	-12694.3580	-12698.3409	-12702.2144	-12704.8624	-12706.1754	-12709.1189	-12710.6945	-12710.3991	-12708.8234	-12705.8691	-12700.3324	-12686.0639	-12683.2299	-12638.7285	-12627.9396	-12544.3531	-12504.2614	-12452.0786
-12267.0044	-12270.1776	-12273.3071	-12273.6463	-12274.5107	-12270.4621	-12265.5491	-12253.6442	-12216.6818	-12186.2738	-12119.3302	-12051.3800	-11913.4004	-11836.4448	-11779.6555	-11743.2731	-11871.5251	-12053.2511	-12276.1629	-12323.5859	-12335.7097	-12343.4457	-12350.5472	-12358.3270	-12362.5725	-12367.4527	-12372.0046	-12377.3881	-12380.0032	-12382.4324	-12387.8377	-12392.1161	-12397.0072	-12398.9768	-12402.0296	-12404.6010	-12409.2185	-12412.8513	-12416.1668	-12419.7448	-12425.5551	-12425.6426	-12430.4133	-12433.5865	-12440.2503	-12442.5372	-12446.4872	-12449.2665	-12454.0482	-12457.9983	-12459.1035	-12464.1259	-12467.8680	-12472.2886	-12475.5603	-12479.3135	-12483.0338	-12487.4872	-12491.8312	-12497.3132	-12499.6657	-12504.3817	-12508.5726	-12513.0807	-12514.7329	-12518.0593	-12523.8477	-12525.3468	-12528.5418	-12531.4524	-12534.9867	-12538.0396	-12540.9830	-12542.1210	-12543.8279	-12544.8346	-12544.1233	-12542.3617	-12537.2408	-12525.7954	-12524.9857	-12506.5154	-12504.3051	-12506.0231	-12540.4468	-12553.5226	-12566.3467	-12579.3896	-12591.7980	-12599.4902	-12606.9090	-12613.5946	-12620.6631	-12625.4886	-12629.3840	-12634.9973	-12637.9188	-12642.2737	-12646.6396	-12650.5678	-12655.4152	-12658.8838	-12662.3196	-12665.0551	-12668.7535	-12671.8611	-12676.4021	-12678.5795	-12682.3983	-12685.9435	-12690.3423	-12695.2662	-12699.5774	-12700.5293	-12703.1664	-12703.7135	-12704.5451	-12705.7268	-12706.4818	-12707.2587	-12705.1359	-12700.4965	-12695.4850	-12689.4888	-12676.0847	-12650.6663	-12628.5305	-12631.6271
-12255.5262	-12258.6556	-12260.9972	-12263.2622	-12262.9340	-12262.2009	-12257.7037	-12253.9943	-12244.3434	-12231.5084	-12201.6474	-12166.1842	-12126.5629	-12059.3239	-12062.3877	-11981.7665	-11931.3783	-11991.3189	-12223.6082	-12315.0730	-12322.8418	-12335.1298	-12341.5309	-12347.1879	-12352.5058	-12355.8978	-12361.6643	-12364.4764	-12367.2229	-12372.5954	-12378.6792	-12380.8239	-12385.6712	-12387.1374	-12391.5690	-12394.3264	-12397.4777	-12401.5482	-12405.3341	-12409.8532	-12412.6872	-12416.1558	-12419.5807	-12424.2311	-12429.3301	-12434.6042	-12437.0333	-12441.0600	-12444.4082	-12449.3650	-12451.1048	-12456.5868	-12459.6943	-12465.7672	-12470.2534	-12472.9561	-12477.0703	-12480.2545	-12484.5219	-12489.7522	-12493.5600	-12495.0263	-12498.7247	-12502.4669	-12507.7300	-12511.0126	-12515.1925	-12518.3329	-12521.6155	-12524.2197	-12527.8634	-12531.5181	-12532.7874	-12534.8882	-12536.6280	-12537.8317	-12534.1004	-12528.8592	-12519.9523	-12493.8008	-12448.9492	-12431.7483	-12409.9735	-12426.0365	-12476.0527	-12524.0884	-12552.3518	-12570.9643	-12581.5781	-12591.6448	-12599.1401	-12606.3619	-12614.2401	-12618.7264	-12623.1470	-12629.6575	-12633.5967	-12638.4112	-12642.5035	-12644.0573	-12648.3685	-12652.1107	-12654.9009	-12658.5227	-12662.0679	-12667.2873	-12670.4058	-12673.6228	-12676.4458	-12681.5448	-12684.6633	-12689.0949	-12692.3228	-12696.6996	-12698.3081	-12700.3652	-12701.2953	-12703.2977	-12703.9104	-12704.2496	-12703.2539	-12701.9737	-12699.8181	-12700.0807	-12697.5859	-12694.9817	-12696.2838	-12692.5526
-12244.2559	-12247.0570	-12250.4272	-12251.4448	-12254.0928	-12253.7864	-12253.0095	-12250.2084	-12249.4315	-12244.7483	-12234.6487	-12219.4611	-12193.9552	-12175.2333	-12179.5773	-12229.9765	-12189.4361	-12153.8087	-12194.3163	-12300.4981	-12315.8170	-12323.0935	-12329.7463	-12335.6222	-12340.9072	-12346.7831	-12350.4158	-12354.4644	-12355.8541	-12362.6053	-12366.1177	-12369.9365	-12373.6896	-12378.5807	-12379.9594	-12384.4019	-12387.8487	-12390.9343	-12393.8559	-12399.0862	-12403.0691	-12405.8812	-12409.7875	-12413.8908	-12419.9746	-12424.0232	-12427.1198	-12429.8115	-12434.6589	-12438.7512	-12442.9311	-12445.7651	-12451.9255	-12457.7138	-12462.1344	-12466.8286	-12467.8133	-12472.6716	-12475.6479	-12482.4319	-12484.4015	-12488.2203	-12490.2884	-12494.4901	-12498.8998	-12502.3793	-12506.5811	-12510.7719	-12513.8904	-12517.4356	-12519.6897	-12523.1583	-12525.2483	-12526.9771	-12528.3777	-12525.6641	-12522.6441	-12513.1026	-12493.7023	-12425.6426	-12369.7943	-12260.4173	-12231.0597	-12223.5316	-12338.7078	-12447.6471	-12528.4762	-12551.2466	-12570.7126	-12579.2693	-12590.4740	-12601.1425	-12606.6901	-12613.5180	-12618.6717	-12624.8868	-12628.8588	-12632.4259	-12637.3498	-12641.4640	-12643.2695	-12646.3989	-12649.0578	-12653.4237	-12657.2534	-12660.7768	-12665.3724	-12668.1955	-12673.3383	-12675.5157	-12680.4506	-12683.1424	-12688.9198	-12690.4845	-12694.1720	-12695.6710	-12699.1835	-12700.4965	-12701.5798	-12701.6673	-12703.2211	-12703.2211	-12703.3743	-12705.1688	-12705.7049	-12706.0441	-12708.7796	-12715.3887
-12234.3095	-12237.5921	-12240.8857	-12242.5270	-12244.7701	-12244.9124	-12245.8862	-12245.9081	-12245.2188	-12243.2164	-12243.5884	-12243.4243	-12235.1958	-12231.6834	-12244.6498	-12260.1438	-12271.6767	-12281.5136	-12292.6636	-12300.9905	-12309.5582	-12317.6991	-12322.7981	-12329.0788	-12333.6198	-12339.6270	-12343.8615	-12347.4505	-12351.0067	-12353.8845	-12357.1124	-12362.1895	-12367.2666	-12368.8861	-12373.3504	-12376.0422	-12379.8500	-12382.6074	-12386.3715	-12390.6389	-12394.7641	-12398.3093	-12402.7955	-12406.5596	-12411.5820	-12416.4841	-12420.0731	-12425.4456	-12427.3824	-12433.8382	-12436.8910	-12440.8630	-12444.5286	-12449.2009	-12456.6634	-12459.8585	-12461.4560	-12466.0188	-12471.1835	-12474.8053	-12480.0903	-12483.6465	-12485.4848	-12488.2750	-12492.8597	-12496.1205	-12502.3465	-12504.4693	-12508.5397	-12510.6516	-12514.3828	-12515.8928	-12518.3657	-12520.8386	-12520.7730	-12518.0046	-12513.1792	-12500.8584	-12416.1230	-12308.0700	-12150.9419	-12047.4955	-12029.5724	-11934.6937	-12130.1629	-12348.7417	-12467.3319	-12545.1410	-12563.8081	-12575.0894	-12585.8236	-12597.3346	-12604.4142	-12609.7211	-12616.0456	-12623.0813	-12625.9700	-12630.5001	-12634.1109	-12637.0434	-12641.9892	-12642.3722	-12646.5849	-12649.1235	-12654.2225	-12657.1002	-12663.5561	-12665.7117	-12670.3730	-12672.8787	-12676.7522	-12680.7351	-12684.5539	-12688.0663	-12690.0906	-12693.1434	-12696.5464	-12698.8661	-12699.5992	-12701.8861	-12702.4004	-12703.3961	-12704.0089	-12707.3572	-12708.4186	-12711.4276	-12714.8744	-12720.4001
-12233.1934	-12237.3952	-12239.4414	-12242.5708	-12243.4899	-12246.6303	-12247.8668	-12249.0923	-12248.7531	-12249.7160	-12252.5062	-12251.8497	-12255.0666	-12260.8769	-12263.2841	-12271.1077	-12282.4437	-12287.6084	-12295.8915	-12303.4853	-12312.0529	-12317.5459	-12323.7500	-12328.4332	-12334.8453	-12339.2002	-12343.1941	-12345.9405	-12347.9539	-12352.2651	-12356.1057	-12360.1871	-12363.3494	-12367.3432	-12369.9693	-12371.9936	-12374.3133	-12378.7996	-12380.1892	-12386.3168	-12388.8225	-12394.5562	-12399.0971	-12403.7366	-12408.9559	-12411.9759	-12417.9284	-12422.0864	-12425.4456	-12433.0285	-12438.1056	-12439.3092	-12445.1414	-12447.7018	-12453.1947	-12457.8013	-12462.0359	-12464.0164	-12469.7282	-12472.9452	-12477.8800	-12480.9110	-12486.0428	-12488.4939	-12492.5643	-12497.3022	-12501.9198	-12503.9769	-12506.4607	-12510.1701	-12513.0479	-12516.1335	-12516.4837	-12518.1140	-12517.2934	-12515.2800	-12505.9465	-12487.4544	-12388.2426	-12223.1705	-11981.3288	-11862.0274	-11842.9773	-11854.4336	-12029.9554	-12252.2217	-12424.4499	-12523.2896	-12556.0830	-12571.2925	-12582.9021	-12593.3408	-12602.3899	-12608.5612	-12615.0827	-12620.0832	-12622.8406	-12627.0424	-12631.8350	-12636.2118	-12636.7152	-12640.6543	-12643.3679	-12646.6834	-12651.1040	-12655.4152	-12658.6650	-12663.5451	-12666.1493	-12669.9134	-12672.0690	-12676.6756	-12681.6761	-12685.1448	-12687.7490	-12690.6486	-12693.4717	-12696.9513	-12699.5992	-12700.3761	-12702.9038	-12703.8338	-12706.8976	-12709.9833	-12712.5437	-12714.9182	-12719.5685	-12724.3830
-12230.5345	-12234.5174	-12238.1502	-12240.3277	-12243.2930	-12245.0875	-12247.6698	-12248.3920	-12250.5038	-12253.4363	-12257.8569	-12259.8264	-12262.3212	-12265.3412	-12272.3332	-12277.8809	-12284.7415	-12291.0332	-12297.4453	-12304.5248	-12310.9806	-12317.4364	-12324.1330	-12328.8709	-12332.3067	-12337.4167	-12338.2264	-12341.7060	-12344.4196	-12349.0262	-12352.2979	-12354.7817	-12359.5744	-12360.9421	-12362.7366	-12364.6187	-12368.8532	-12370.7572	-12375.3091	-12378.6573	-12387.2359	-12388.5052	-12394.2717	-12400.0272	-12405.6405	-12409.3280	-12415.0835	-12418.1910	-12425.9599	-12429.4614	-12434.3087	-12438.2041	-12441.9244	-12446.3778	-12450.4702	-12454.2780	-12459.0597	-12464.2243	-12467.2334	-12472.9342	-12476.7749	-12478.9961	-12481.9724	-12486.0319	-12490.6166	-12494.3369	-12496.9849	-12501.5806	-12504.3161	-12508.1349	-12510.9032	-12513.5731	-12515.4114	-12517.4466	-12516.2429	-12511.8005	-12503.3094	-12475.7901	-12332.7553	-12210.9810	-11991.7457	-11855.0464	-11835.8868	-11841.0624	-11930.9187	-12109.4167	-12305.1376	-12471.7744	-12548.0625	-12570.8767	-12580.3854	-12589.4345	-12596.7985	-12604.7534	-12610.6183	-12615.8158	-12619.8972	-12621.4838	-12627.6004	-12630.7517	-12632.8307	-12636.5073	-12639.6367	-12644.4184	-12647.8542	-12650.6772	-12655.8419	-12658.3367	-12662.1664	-12664.3220	-12668.9505	-12673.5681	-12678.7546	-12681.7308	-12684.7071	-12687.3988	-12690.0578	-12693.9641	-12697.1045	-12699.9275	-12700.6825	-12702.9694	-12705.4314	-12709.4581	-12714.0866	-12717.7850	-12722.4791	-12726.4292
-12226.8142	-12231.0488	-12235.7320	-12238.2377	-12241.2359	-12243.5337	-12246.3349	-12249.6065	-12251.1165	-12256.2703	-12260.1000	-12262.6823	-12264.6409	-12270.6372	-12273.6682	-12280.8024	-12285.1245	-12290.9457	-12297.0623	-12301.3078	-12307.2603	-12314.7228	-12320.7300	-12322.6558	-12326.8138	-12329.3195	-12334.4842	-12336.6835	-12341.2902	-12343.7521	-12347.5709	-12350.1204	-12353.8735	-12353.3812	-12354.6833	-12355.9635	-12359.8041	-12362.1895	-12366.6977	-12373.5146	-12375.9328	-12379.4452	-12386.3934	-12391.7003	-12397.9263	-12404.8636	-12408.8684	-12415.9589	-12420.0074	-12425.3034	-12428.8814	-12433.8382	-12439.2874	-12442.5481	-12446.3669	-12450.7546	-12454.2671	-12459.8913	-12464.5964	-12467.5288	-12472.9889	-12475.9214	-12479.3791	-12483.2526	-12487.9686	-12490.9886	-12494.5339	-12497.5539	-12501.9088	-12504.9617	-12506.9422	-12509.1963	-12512.0193	-12512.8071	-12512.7305	-12508.7805	-12501.7556	-12475.1774	-12399.6223	-12262.9012	-12091.8985	-11994.1310	-11907.6777	-11856.4798	-11867.8158	-12059.2692	-12301.4610	-12493.5272	-12545.5458	-12564.8039	-12576.3368	-12584.8826	-12593.6472	-12599.7310	-12606.5369	-12610.5855	-12616.6365	-12619.5908	-12624.0990	-12625.8935	-12628.5633	-12632.5572	-12636.7589	-12641.1467	-12643.9150	-12647.8870	-12651.1149	-12655.4152	-12656.9689	-12662.2211	-12664.2782	-12669.9462	-12673.3164	-12679.0500	-12680.9977	-12684.7290	-12687.2894	-12691.0535	-12693.4060	-12696.9841	-12698.2643	-12701.4047	-12706.4052	-12710.1802	-12713.5613	-12717.1284	-12722.6980	-12725.9478
-12223.4003	-12226.8361	-12230.0968	-12234.2220	-12237.4061	-12240.8529	-12243.7306	-12246.8601	-12252.0029	-12256.2265	-12259.4325	-12262.9449	-12268.0330	-12270.9655	-12275.4408	-12280.1021	-12286.2953	-12289.8077	-12294.6332	-12300.2136	-12306.4068	-12310.6195	-12312.7204	-12318.4431	-12322.3166	-12324.9208	-12328.0174	-12331.0703	-12334.7796	-12339.1127	-12341.4324	-12344.2226	-12345.5247	-12347.0238	-12345.9405	-12348.5885	-12348.3150	-12349.4748	-12355.3070	-12360.7561	-12365.2752	-12371.8951	-12378.7449	-12384.5551	-12389.1836	-12396.1428	-12403.5834	-12409.4374	-12415.9370	-12421.5721	-12425.1283	-12428.9252	-12434.3197	-12437.9634	-12442.4934	-12447.5267	-12451.5534	-12455.1424	-12459.9898	-12463.9727	-12467.4851	-12471.5336	-12474.6850	-12479.9590	-12483.5480	-12488.7455	-12490.1789	-12493.8445	-12497.1709	-12502.4778	-12503.8565	-12506.3513	-12507.3908	-12509.6121	-12509.1963	-12505.1805	-12498.0463	-12479.8059	-12443.9377	-12356.2370	-12295.3335	-12172.5087	-12081.5691	-11994.2076	-11967.4105	-12056.7197	-12221.6714	-12445.7104	-12542.7775	-12558.9717	-12573.6451	-12580.4839	-12589.4564	-12595.6496	-12601.4379	-12607.0731	-12609.6226	-12612.1283	-12614.4262	-12621.0789	-12623.0157	-12628.1366	-12631.4083	-12635.4897	-12639.3741	-12643.2366	-12645.2281	-12648.9812	-12653.8942	-12657.0674	-12660.7221	-12664.9238	-12670.6684	-12672.7693	-12676.8179	-12679.7394	-12684.8384	-12687.8803	-12690.5392	-12693.1653	-12697.3124	-12701.7658	-12705.9019	-12708.8672	-12712.3249	-12716.0999	-12719.4919	-12724.0220
-12216.2879	-12220.4678	-12224.3085	-12227.0330	-12232.4275	-12235.8852	-12240.7106	-12243.6431	-12246.9148	-12249.5847	-12255.5919	-12260.6361	-12265.3960	-12268.9302	-12272.4426	-12278.1435	-12281.8966	-12287.0722	-12290.3001	-12297.0404	-12301.0890	-12305.5643	-12306.7460	-12311.3527	-12315.1058	-12319.5154	-12323.7281	-12326.2558	-12329.3633	-12332.6459	-12335.2064	-12336.5194	-12337.9091	-12339.0799	-12338.9486	-12336.6179	-12338.6750	-12340.0099	-12340.1084	-12344.6603	-12349.9344	-12358.5568	-12364.3342	-12376.1297	-12381.5460	-12386.6013	-12394.8844	-12403.2113	-12407.5006	-12415.1163	-12419.4603	-12424.9861	-12427.5465	-12432.9628	-12436.4534	-12441.5305	-12445.6994	-12449.6604	-12454.8251	-12458.7095	-12463.1520	-12465.7781	-12470.0127	-12473.7877	-12479.7621	-12482.2788	-12486.1413	-12488.4391	-12492.6190	-12494.6105	-12499.1077	-12500.9678	-12503.6705	-12503.6596	-12505.0820	-12502.9921	-12498.8888	-12491.5139	-12477.8910	-12450.9297	-12411.4398	-12348.7089	-12278.0997	-12196.7892	-12180.4855	-12183.7462	-12222.7766	-12390.5404	-12544.2109	-12560.2520	-12566.2482	-12576.7417	-12583.5258	-12589.2813	-12594.8946	-12601.2957	-12602.5431	-12606.1649	-12609.2068	-12613.6712	-12618.5513	-12623.2345	-12626.3093	-12631.5943	-12635.7523	-12637.4702	-12641.8579	-12644.1120	-12650.8086	-12653.0626	-12657.2097	-12660.2953	-12664.1251	-12668.7098	-12673.2070	-12676.4568	-12679.0610	-12681.5667	-12684.6743	-12689.8061	-12692.2352	-12696.9294	-12699.2600	-12703.7463	-12705.3876	-12709.6222	-12716.0233	-12721.9539
-12210.2807	-12214.9749	-12218.8155	-12223.4440	-12227.9412	-12232.7776	-12235.8414	-12240.4261	-12242.8553	-12246.5209	-12252.4296	-12257.4848	-12261.8398	-12264.6409	-12269.4773	-12273.9964	-12277.4432	-12279.5440	-12283.4723	-12289.3153	-12295.6727	-12297.8064	-12301.8330	-12304.5029	-12310.3788	-12312.6438	-12316.6596	-12319.6030	-12323.5640	-12326.3433	-12327.3500	-12329.4399	-12329.8338	-12329.3414	-12327.3500	-12325.2381	-12320.7519	-12314.5368	-12314.1538	-12320.4127	-12330.4685	-12342.1327	-12351.4335	-12364.1919	-12373.1206	-12383.2858	-12386.0870	-12394.2717	-12401.0339	-12407.3803	-12413.5188	-12418.2676	-12422.6226	-12425.7411	-12431.3762	-12438.3792	-12439.9548	-12447.5049	-12450.7765	-12451.9473	-12456.4117	-12460.4056	-12464.5635	-12467.5179	-12472.8139	-12475.7792	-12480.8344	-12484.5109	-12487.2027	-12491.4810	-12494.3697	-12497.2366	-12498.5496	-12500.5301	-12501.0006	-12499.1186	-12497.3132	-12494.0087	-12488.8768	-12482.2788	-12471.9713	-12449.5620	-12395.4425	-12376.0860	-12387.2031	-12404.3821	-12359.2570	-12378.7668	-12520.8167	-12553.9274	-12565.5151	-12570.7564	-12578.7331	-12583.0990	-12589.3032	-12594.3584	-12596.9407	-12600.7595	-12605.8476	-12608.8895	-12613.5508	-12617.9276	-12620.8054	-12626.1014	-12630.9815	-12633.9687	-12636.2775	-12639.2537	-12642.9303	-12647.4712	-12651.7933	-12654.9337	-12657.7896	-12662.6916	-12666.0180	-12668.4691	-12670.7450	-12674.1152	-12680.0677	-12683.8974	-12688.7994	-12691.9289	-12695.5616	-12699.6868	-12703.1664	-12706.1645	-12710.8805	-12714.7759
-12206.6151	-12210.2917	-12214.4278	-12219.1766	-12223.8489	-12227.3504	-12232.1977	-12234.7800	-12239.7040	-12243.4462	-12250.2959	-12254.6180	-12258.2945	-12262.6385	-12267.5297	-12269.9260	-12272.7600	-12276.0426	-12278.8219	-12284.5993	-12287.7178	-12292.6308	-12296.9419	-12302.6756	-12306.8445	-12309.8098	-12312.4359	-12316.0140	-12318.8042	-12321.0911	-12322.2728	-12324.6692	-12322.6120	-12320.5987	-12316.9878	-12302.4786	-12279.5769	-12262.4744	-12241.8048	-12262.8574	-12279.3690	-12305.5424	-12336.0708	-12352.7137	-12365.1220	-12377.5522	-12383.5594	-12390.0918	-12398.6923	-12405.6405	-12411.1443	-12416.0792	-12421.1235	-12425.6864	-12429.5380	-12435.2826	-12438.9810	-12444.0690	-12444.8788	-12448.5444	-12451.2908	-12455.7661	-12459.7600	-12463.9617	-12469.9908	-12476.0965	-12479.9043	-12482.4210	-12483.8654	-12486.5790	-12491.5795	-12494.1071	-12495.6390	-12496.0111	-12496.2956	-12495.8360	-12496.0220	-12494.0962	-12492.8707	-12488.8112	-12487.7060	-12483.1541	-12472.3324	-12463.2943	-12477.8691	-12499.8298	-12515.1706	-12532.9843	-12543.0948	-12551.7828	-12559.2781	-12567.7254	-12573.2293	-12579.8930	-12585.2546	-12590.1129	-12594.5006	-12599.2167	-12599.9717	-12606.6354	-12610.7715	-12614.5246	-12620.0285	-12623.3221	-12626.1123	-12629.3074	-12632.3383	-12634.7346	-12638.1157	-12641.4859	-12646.3004	-12649.9332	-12653.1830	-12656.8048	-12660.6783	-12664.6065	-12667.9657	-12673.4805	-12679.3783	-12683.8427	-12688.1976	-12692.5307	-12695.5507	-12699.6868	-12702.4551	-12707.5651	-12710.7383	-12714.1522
-12201.3739	-12207.1622	-12212.1628	-12216.9554	-12220.2161	-12225.2385	-12228.4774	-12232.9965	-12237.8219	-12245.6674	-12249.4424	-12254.1694	-12254.9572	-12258.7541	-12262.4306	-12266.4026	-12269.5211	-12273.9745	-12276.4037	-12282.0607	-12286.8534	-12290.2782	-12296.3182	-12301.9206	-12305.9692	-12306.7679	-12309.6457	-12312.2280	-12315.3246	-12315.4778	-12318.1039	-12317.4255	-12315.2918	-12310.1381	-12300.1589	-12274.2590	-12217.5025	-12168.5586	-12096.3409	-12148.0532	-12154.7607	-12246.1270	-12310.4226	-12340.5352	-12358.3160	-12371.6872	-12380.2002	-12386.7982	-12394.1623	-12401.7889	-12407.3256	-12415.3352	-12420.4561	-12425.3690	-12429.1769	-12433.9367	-12438.8387	-12440.7864	-12442.3293	-12446.0277	-12450.4811	-12452.4835	-12457.4512	-12461.6311	-12466.2705	-12472.0042	-12477.6393	-12479.9153	-12481.0314	-12484.8830	-12489.5881	-12491.6780	-12492.7394	-12492.4987	-12493.1333	-12495.5405	-12495.6937	-12496.6785	-12496.0220	-12496.9521	-12497.4116	-12495.5296	-12495.0700	-12501.7994	-12506.7890	-12516.6259	-12526.0361	-12536.4967	-12544.8784	-12552.6691	-12559.0812	-12565.1540	-12572.1788	-12577.1903	-12581.3811	-12585.5500	-12588.9311	-12589.9487	-12594.4022	-12599.4574	-12604.8409	-12608.0579	-12612.0080	-12614.4480	-12617.4899	-12620.9914	-12622.7312	-12625.8497	-12628.4977	-12634.3845	-12637.1857	-12641.8251	-12646.3989	-12651.1915	-12655.6012	-12660.1093	-12662.3634	-12667.6046	-12672.4082	-12677.3431	-12683.6567	-12688.4493	-12691.9617	-12695.2990	-12699.3804	-12702.0393	-12708.6265	-12712.5000
-12204.3720	-12209.7008	-12213.0600	-12218.0605	-12222.6672	-12225.5778	-12231.3005	-12236.6074	-12242.7677	-12246.7725	-12249.2564	-12251.5214	-12255.7779	-12259.6514	-12263.9954	-12266.8841	-12270.2105	-12274.9703	-12279.7957	-12284.1725	-12289.0089	-12292.5979	-12297.2264	-12302.6975	-12305.3455	-12309.2080	-12311.4183	-12314.6790	-12316.0796	-12318.4978	-12318.9136	-12319.4170	-12314.8103	-12305.3345	-12285.8905	-12218.1371	-12104.0879	-11982.3683	-11886.6908	-11876.4928	-11874.9062	-12095.2577	-12256.0186	-12332.3614	-12353.7532	-12371.6216	-12381.8743	-12390.4967	-12398.0248	-12404.2180	-12409.7219	-12415.8932	-12421.5940	-12424.8766	-12428.7720	-12434.5932	-12437.9634	-12442.9748	-12444.8788	-12448.4568	-12451.4331	-12456.9260	-12458.5454	-12463.5131	-12467.4741	-12473.5251	-12475.4837	-12478.2302	-12481.5785	-12485.8240	-12489.4458	-12492.8160	-12494.4135	-12494.4463	-12496.9083	-12498.5168	-12500.5083	-12500.7490	-12502.5325	-12505.3665	-12508.1568	-12507.5002	-12509.8747	-12513.3105	-12520.5322	-12525.7297	-12533.2250	-12540.5125	-12546.8917	-12554.9669	-12559.4860	-12566.8719	-12571.2925	-12577.0371	-12579.6851	-12586.4035	-12588.7670	-12589.9378	-12593.1876	-12597.5207	-12601.0659	-12604.7534	-12607.8937	-12608.6050	-12612.0846	-12613.1569	-12616.5817	-12620.5209	-12623.5190	-12629.1980	-12634.9097	-12636.7699	-12642.4050	-12646.0050	-12652.9641	-12655.5684	-12659.7373	-12664.0485	-12670.0338	-12676.3802	-12681.2275	-12684.3132	-12685.9545	-12692.1258	-12696.7653	-12698.7239	-12702.5864	-12706.7882
-12206.6589	-12209.8431	-12216.9663	-12220.9164	-12226.1030	-12231.8694	-12235.8524	-12241.1811	-12248.1512	-12251.6746	-12252.3968	-12256.6095	-12260.3517	-12264.7175	-12267.8251	-12272.6505	-12276.1848	-12280.7586	-12285.7044	-12290.3001	-12293.0794	-12298.5395	-12302.3911	-12306.3193	-12310.4116	-12313.3769	-12315.4559	-12318.4212	-12321.2881	-12321.4741	-12323.5312	-12321.1349	-12316.5173	-12303.1789	-12265.0567	-12138.0740	-11925.3492	-11756.1410	-11672.9593	-11610.0971	-11697.0100	-11927.2203	-12165.1666	-12311.6153	-12354.5301	-12375.4075	-12383.2202	-12394.0857	-12402.2375	-12408.5183	-12415.3133	-12420.6421	-12425.6317	-12431.2340	-12433.8273	-12436.5518	-12442.0885	-12445.7541	-12449.3541	-12451.6847	-12454.6281	-12457.5168	-12461.8937	-12465.4389	-12470.0018	-12473.5908	-12478.4600	-12480.1560	-12484.0951	-12486.8525	-12491.4920	-12493.4834	-12496.5035	-12497.3898	-12500.1690	-12501.7447	-12505.3337	-12509.3385	-12510.0279	-12512.7415	-12513.5950	-12517.5998	-12519.0004	-12524.1541	-12528.0494	-12535.0195	-12538.9696	-12546.7823	-12552.4831	-12558.3152	-12562.6702	-12567.8676	-12572.2773	-12576.7088	-12579.1161	-12581.1951	-12586.7755	-12589.2813	-12594.7085	-12596.6234	-12598.7790	-12601.5145	-12605.9242	-12607.4123	-12610.5527	-12609.2834	-12612.2487	-12615.0170	-12619.0984	-12624.5148	-12627.8849	-12632.7760	-12638.4331	-12643.4445	-12647.1758	-12652.1873	-12659.2011	-12663.4466	-12667.0466	-12675.0671	-12677.4525	-12682.9673	-12689.4341	-12692.8918	-12693.0449	-12696.5574	-12702.9147	-12708.5608
-12205.4225	-12209.7883	-12215.7408	-12222.4045	-12224.9650	-12231.3661	-12235.7976	-12240.9076	-12243.5337	-12250.0005	-12255.2636	-12257.6052	-12263.4811	-12268.9849	-12272.3551	-12276.1958	-12280.6930	-12283.7786	-12289.1293	-12289.1621	-12294.2283	-12297.9705	-12302.2270	-12307.1181	-12309.7770	-12311.9326	-12315.1277	-12318.8589	-12320.9051	-12322.7652	-12324.4941	-12320.3470	-12313.7818	-12297.3906	-12233.3904	-12074.8179	-11825.2292	-11649.2041	-11599.2864	-11603.9368	-11639.6736	-11850.3194	-12053.8748	-12259.0386	-12340.4148	-12370.6149	-12382.6731	-12393.2650	-12401.4606	-12409.7109	-12414.3504	-12419.7886	-12425.9271	-12429.4395	-12432.6674	-12435.0309	-12438.8934	-12444.0909	-12446.3997	-12450.3826	-12453.6215	-12457.7576	-12459.7381	-12463.9289	-12467.5398	-12471.9713	-12474.7287	-12478.6022	-12482.9134	-12486.5133	-12488.3407	-12491.6999	-12494.5776	-12497.9697	-12500.0815	-12503.0030	-12507.1501	-12508.3647	-12510.1154	-12512.6211	-12517.6107	-12520.6417	-12524.1541	-12527.0647	-12532.6779	-12535.7527	-12542.3945	-12547.8327	-12553.5992	-12557.6259	-12562.4294	-12566.2154	-12571.1612	-12574.8159	-12574.7830	-12579.2255	-12583.4382	-12586.9944	-12590.2442	-12592.9688	-12594.5116	-12598.1006	-12599.1839	-12602.7400	-12603.1121	-12605.0707	-12605.5631	-12608.0141	-12611.5484	-12615.7064	-12623.3221	-12627.4253	-12632.7760	-12637.1091	-12642.0877	-12646.5193	-12654.7149	-12659.3434	-12665.2630	-12668.9943	-12674.0933	-12679.3345	-12683.9849	-12688.2195	-12690.6377	-12693.7234	-12700.6169	-12704.4028
-12199.8529	-12205.9258	-12213.2679	-12217.7213	-12221.4416	-12228.1820	-12233.6639	-12239.1022	-12244.0917	-12247.8777	-12251.7184	-12254.9244	-12260.0890	-12264.0501	-12267.8907	-12271.9721	-12277.1368	-12282.5094	-12286.6017	-12292.0180	-12293.9438	-12298.2441	-12299.3492	-12302.7194	-12305.0063	-12309.2080	-12313.0049	-12316.9988	-12317.9835	-12319.2857	-12320.1610	-12318.2571	-12313.4973	-12297.4562	-12231.9242	-12070.2222	-11878.5390	-11729.9019	-11648.3069	-11610.1190	-11609.5610	-11740.6579	-11967.0604	-12203.0590	-12325.3585	-12363.6120	-12377.3990	-12388.3739	-12396.7008	-12405.3013	-12410.4331	-12416.4294	-12419.7339	-12425.5988	-12427.1417	-12430.8838	-12434.9324	-12439.4843	-12442.3183	-12445.2836	-12450.1310	-12453.4355	-12456.9697	-12459.5521	-12463.7757	-12467.0802	-12471.1397	-12474.5865	-12480.4077	-12482.5085	-12486.0100	-12487.7826	-12492.2142	-12494.8074	-12499.1624	-12502.2699	-12503.9659	-12506.5045	-12510.6078	-12514.3719	-12517.4685	-12521.0246	-12524.4276	-12528.0932	-12532.0761	-12536.9235	-12540.9611	-12548.1172	-12552.7566	-12557.2757	-12560.4270	-12564.9680	-12566.1169	-12569.9576	-12572.7369	-12577.6061	-12581.8078	-12585.5281	-12587.9792	-12589.7299	-12592.3013	-12593.4940	-12596.1748	-12596.6125	-12598.5820	-12598.1991	-12600.0483	-12599.2604	-12602.3352	-12606.5369	-12614.2620	-12619.7112	-12625.1275	-12630.6751	-12633.9140	-12642.1315	-12648.1606	-12656.5860	-12659.8139	-12666.0509	-12670.7559	-12677.0695	-12680.4178	-12684.9697	-12686.7533	-12692.5635	-12699.2272	-12699.7743
-12192.8828	-12200.1593	-12205.5538	-12211.5610	-12216.2879	-12222.0763	-12228.1273	-12233.5217	-12237.4061	-12244.1027	-12246.1707	-12251.4886	-12254.2897	-12259.4435	-12263.6999	-12267.5297	-12274.7295	-12280.9556	-12285.5294	-12288.9105	-12293.2107	-12293.9219	-12294.9395	-12297.9814	-12301.9534	-12305.5315	-12310.6742	-12315.6529	-12316.2766	-12316.0468	-12315.6091	-12314.9745	-12309.6785	-12298.2222	-12234.3423	-12188.4841	-12045.1211	-11932.0348	-11800.3032	-11732.7031	-11652.0928	-11707.6785	-11868.9756	-12107.2283	-12324.0673	-12359.1148	-12374.8823	-12385.0803	-12392.0176	-12398.9768	-12404.9949	-12409.1748	-12416.1777	-12421.2658	-12423.8481	-12424.9423	-12429.3629	-12433.3020	-12438.9044	-12442.9092	-12445.8198	-12448.4130	-12452.8446	-12455.3284	-12459.2129	-12462.6159	-12465.9860	-12469.0717	-12474.9257	-12478.4162	-12482.1475	-12486.7103	-12490.4853	-12494.1618	-12495.7375	-12498.2323	-12501.5587	-12506.9312	-12509.3713	-12513.1135	-12516.0022	-12519.8867	-12524.0994	-12528.3449	-12531.7916	-12535.0961	-12540.6875	-12546.0929	-12552.1001	-12555.7219	-12560.0988	-12560.0878	-12565.2087	-12570.3515	-12572.8025	-12574.1593	-12576.4791	-12579.0504	-12584.0838	-12586.3488	-12588.6138	-12588.3074	-12588.0886	-12589.5658	-12591.0539	-12589.2266	-12588.4387	-12584.6966	-12587.7166	-12589.1609	-12596.4593	-12610.9028	-12617.9167	-12623.9348	-12633.4654	-12638.6081	-12644.3308	-12655.0869	-12660.3938	-12664.9676	-12670.5918	-12674.6842	-12680.0020	-12682.5843	-12685.4730	-12687.3988	-12692.6292	-12696.4808
-12181.3608	-12187.5869	-12193.0907	-12201.4067	-12208.0704	-12213.0819	-12219.9645	-12223.4222	-12230.3485	-12236.6074	-12243.0413	-12245.0656	-12247.5823	-12251.1384	-12258.9292	-12263.7984	-12267.8032	-12275.1016	-12280.0912	-12283.5270	-12285.8576	-12286.9847	-12287.5755	-12290.9129	-12294.1627	-12299.1741	-12303.5728	-12307.1509	-12309.2737	-12310.0724	-12310.0834	-12310.6633	-12306.7570	-12298.4410	-12279.3690	-12230.7424	-12193.8348	-12089.7319	-12038.0635	-11894.6567	-11864.1939	-11829.1355	-11884.4368	-12068.4277	-12279.5331	-12355.9416	-12368.5250	-12377.8476	-12385.6821	-12390.5076	-12397.2370	-12402.2813	-12407.7414	-12411.6696	-12413.8142	-12418.4865	-12421.9551	-12427.7435	-12432.6127	-12434.8996	-12436.6941	-12442.4824	-12444.4520	-12447.7565	-12451.5862	-12455.8208	-12458.5235	-12462.8019	-12468.5136	-12473.1421	-12476.5232	-12478.8320	-12482.2131	-12484.3578	-12489.5771	-12491.9844	-12496.5035	-12500.9131	-12505.7495	-12507.9379	-12511.9755	-12515.0612	-12518.8253	-12523.5194	-12526.7911	-12531.6384	-12534.8445	-12540.2936	-12544.6705	-12548.3251	-12550.1743	-12555.3827	-12559.4204	-12562.1231	-12564.4975	-12567.4190	-12570.1108	-12574.8596	-12578.2188	-12580.2103	-12581.5890	-12581.5671	-12583.6789	-12582.3221	-12580.2541	-12574.2797	-12570.5813	-12559.7049	-12542.7775	-12560.4708	-12576.1617	-12591.7323	-12604.5783	-12613.6055	-12626.6047	-12630.5219	-12641.5516	-12649.3861	-12655.4152	-12658.4242	-12662.6916	-12667.6593	-12673.7431	-12677.5400	-12680.8774	-12685.3417	-12688.2086	-12693.4279
-12170.9112	-12175.6162	-12183.2976	-12190.8148	-12197.1393	-12206.9215	-12212.4254	-12218.0387	-12220.9493	-12227.4926	-12230.5017	-12234.7800	-12236.8153	-12242.2644	-12245.7549	-12251.7293	-12257.5177	-12264.3455	-12268.8099	-12271.6876	-12275.1016	-12277.7495	-12278.1872	-12280.4304	-12286.4157	-12290.2563	-12295.6945	-12296.8544	-12299.9729	-12301.0671	-12303.2774	-12302.4567	-12301.2422	-12295.5304	-12288.4509	-12277.9137	-12256.0405	-12225.6762	-12171.4583	-12126.4973	-12115.7959	-12068.3073	-12048.7976	-12069.6313	-12194.3928	-12340.6993	-12361.3798	-12369.8052	-12374.5103	-12383.7892	-12389.3696	-12394.8297	-12400.5196	-12402.4892	-12405.0387	-12409.4483	-12414.4926	-12418.7819	-12423.6293	-12426.3757	-12430.7307	-12431.6170	-12437.1974	-12439.5062	-12443.1827	-12446.3997	-12448.9930	-12453.6324	-12459.2019	-12463.4803	-12469.6625	-12472.2886	-12474.1926	-12477.7269	-12480.2873	-12485.8896	-12491.5686	-12496.7989	-12499.9940	-12502.7404	-12504.4802	-12508.0583	-12512.1944	-12515.9694	-12519.6788	-12523.1693	-12527.2288	-12530.5005	-12535.8074	-12539.7793	-12544.1890	-12548.2923	-12552.4393	-12555.8204	-12559.9675	-12561.6963	-12565.0884	-12567.7145	-12571.2597	-12571.6317	-12573.4919	-12574.4001	-12574.3782	-12572.1022	-12563.6440	-12546.7385	-12512.5555	-12487.1042	-12458.7095	-12471.4461	-12500.8146	-12553.5773	-12586.0971	-12600.6392	-12614.1198	-12626.2983	-12634.0781	-12642.8099	-12647.1211	-12652.0341	-12658.7306	-12665.4600	-12671.4015	-12671.8392	-12675.3188	-12679.7722	-12683.8755	-12686.1843
-12152.4519	-12166.1076	-12171.7537	-12181.6453	-12189.8847	-12199.2402	-12204.1860	-12207.9720	-12211.9549	-12216.9116	-12222.1748	-12226.6938	-12229.8014	-12234.2658	-12240.0432	-12243.6650	-12247.7573	-12253.3378	-12258.9292	-12263.0981	-12267.0920	-12268.0549	-12269.9479	-12273.3727	-12275.9222	-12281.8419	-12285.3652	-12288.2539	-12290.4752	-12292.7511	-12294.2064	-12296.2307	-12295.6070	-12292.9919	-12290.6612	-12284.8947	-12279.6097	-12273.2414	-12252.4624	-12226.5516	-12218.1371	-12260.2313	-12251.2916	-12250.4163	-12257.2441	-12325.2053	-12354.0814	-12360.1215	-12368.5250	-12375.2434	-12381.1850	-12386.0761	-12390.6936	-12393.3088	-12396.2960	-12402.1390	-12405.2466	-12410.4659	-12413.9018	-12418.1035	-12420.4123	-12424.1873	-12427.6341	-12429.0237	-12433.2583	-12436.5190	-12440.3706	-12444.4848	-12451.3783	-12454.4093	-12459.7381	-12462.8128	-12467.0583	-12470.4723	-12475.7135	-12479.4448	-12485.7036	-12489.5443	-12495.1357	-12496.2627	-12499.7095	-12501.9745	-12506.5154	-12510.3889	-12514.7986	-12518.1688	-12521.4842	-12525.2811	-12529.7236	-12534.8882	-12539.0134	-12542.4054	-12547.2528	-12550.7871	-12553.8727	-12556.8709	-12557.9322	-12562.7139	-12564.2021	-12566.7187	-12568.6445	-12570.2640	-12568.8087	-12561.3571	-12544.5063	-12515.8490	-12442.7998	-12390.5514	-12328.4442	-12254.1147	-12382.8700	-12494.5886	-12537.3830	-12584.4449	-12606.1321	-12615.3125	-12628.4539	-12635.0739	-12643.1272	-12650.1083	-12654.4085	-12659.8248	-12664.5409	-12668.3596	-12670.3949	-12675.0452	-12678.5795	-12682.8907
-12143.3809	-12157.2445	-12167.4753	-12177.6952	-12185.1577	-12192.6421	-12196.6907	-12202.3696	-12205.9914	-12212.4363	-12216.0034	-12220.7632	-12225.0963	-12230.8737	-12233.2591	-12238.7082	-12242.2644	-12247.3087	-12252.6594	-12256.6751	-12260.8550	-12262.9230	-12265.8446	-12268.7005	-12273.6244	-12277.0930	-12281.1197	-12283.6036	-12287.6631	-12290.0594	-12292.6089	-12293.1560	-12292.8824	-12291.9961	-12291.4381	-12289.2825	-12290.9019	-12289.7749	-12284.3914	-12283.4394	-12287.4442	-12297.7626	-12312.4031	-12323.1701	-12333.0289	-12342.3734	-12350.5253	-12358.3489	-12364.1481	-12371.4356	-12375.3091	-12379.9157	-12384.1612	-12386.1855	-12390.2450	-12394.7422	-12399.0643	-12403.2989	-12408.1462	-12411.0678	-12415.0288	-12417.6439	-12420.4451	-12422.7758	-12426.4304	-12428.6626	-12433.2583	-12440.1080	-12444.6927	-12450.5249	-12454.2889	-12456.9807	-12461.4888	-12465.7234	-12469.8048	-12472.6826	-12477.6940	-12485.5942	-12488.9425	-12492.4330	-12495.5296	-12498.2651	-12502.1167	-12505.6839	-12510.1701	-12513.8904	-12518.2235	-12522.0860	-12526.0142	-12529.1218	-12535.6432	-12538.2037	-12542.6899	-12547.1215	-12550.7980	-12551.8703	-12554.5511	-12555.9080	-12560.6678	-12564.0926	-12565.5260	-12565.7668	-12561.2258	-12552.8332	-12529.1765	-12465.8766	-12323.9798	-12164.6414	-12068.0776	-12053.4699	-12083.0354	-12326.5074	-12488.1656	-12569.7606	-12595.8465	-12612.3143	-12623.4643	-12633.8483	-12640.4026	-12646.4427	-12654.0146	-12659.3762	-12663.6655	-12667.7469	-12670.9638	-12672.0799	-12677.6495	-12680.0239
-12130.2285	-12149.6288	-12162.1684	-12172.4978	-12179.5663	-12186.9194	-12192.4889	-12197.6864	-12204.6346	-12209.0224	-12213.4430	-12218.0605	-12224.3522	-12227.5583	-12231.7710	-12234.7144	-12239.3210	-12243.7416	-12249.0704	-12252.4624	-12256.4782	-12259.4216	-12262.6385	-12265.5710	-12269.6634	-12274.2043	-12277.3009	-12282.1373	-12284.4023	-12288.8995	-12290.1360	-12292.3353	-12291.9414	-12293.3092	-12292.7840	-12294.8411	-12296.6246	-12298.5942	-12297.6422	-12300.7826	-12303.0914	-12311.7356	-12319.6358	-12328.7724	-12338.5984	-12344.0913	-12352.1119	-12356.8170	-12364.8594	-12368.4484	-12374.0945	-12377.5850	-12382.8372	-12383.3843	-12387.7393	-12392.0067	-12396.1756	-12399.1847	-12403.4302	-12408.1134	-12409.2733	-12415.0397	-12414.5583	-12418.3989	-12420.1059	-12424.2748	-12426.6164	-12433.7397	-12439.4734	-12443.6970	-12446.9796	-12452.1990	-12458.0421	-12461.2809	-12466.5769	-12470.8005	-12474.5865	-12483.1651	-12485.7036	-12489.3692	-12492.8379	-12494.7965	-12500.4645	-12505.1805	-12511.3190	-12513.8029	-12515.9803	-12519.2411	-12523.3444	-12527.5899	-12531.7479	-12535.6651	-12539.2213	-12543.4559	-12546.3555	-12550.2947	-12551.9141	-12554.4964	-12557.0788	-12558.8623	-12558.7529	-12558.7310	-12553.2600	-12541.6504	-12499.8846	-12370.3632	-12161.5557	-11929.9667	-11874.5561	-11858.4931	-11958.2848	-12076.1309	-12340.9838	-12530.4020	-12588.3293	-12607.0621	-12620.7507	-12629.2527	-12637.8203	-12644.1448	-12651.5745	-12656.6735	-12660.5361	-12663.7530	-12666.1822	-12669.3335	-12673.7212	-12679.1595
-12108.8915	-12139.2010	-12158.6013	-12167.0814	-12178.3627	-12186.9741	-12193.4299	-12197.7411	-12203.8906	-12209.1537	-12215.0296	-12219.3845	-12222.0216	-12224.4179	-12228.8932	-12233.4342	-12237.5265	-12242.0893	-12245.7659	-12249.6503	-12251.9044	-12256.9487	-12260.0234	-12264.6957	-12267.9892	-12272.9132	-12275.4627	-12278.2419	-12283.1002	-12287.0394	-12290.4642	-12291.6679	-12293.3858	-12293.3967	-12295.8696	-12297.9158	-12302.5990	-12304.6342	-12306.2427	-12308.7266	-12312.8298	-12319.0012	-12326.1901	-12333.4666	-12340.6227	-12347.7679	-12352.6699	-12357.9659	-12362.6600	-12367.8903	-12371.5997	-12377.5194	-12380.7144	-12382.2026	-12386.3715	-12390.5404	-12393.6589	-12396.0224	-12401.4716	-12402.9597	-12408.2447	-12408.1243	-12411.5383	-12414.0221	-12416.8452	-12418.1582	-12423.0165	-12429.2863	-12433.2145	-12437.3178	-12443.8393	-12448.5006	-12455.8755	-12461.1824	-12467.1896	-12470.3847	-12474.7834	-12480.9657	-12486.1304	-12488.1656	-12490.3540	-12494.8950	-12497.8384	-12506.3841	-12509.5573	-12514.1092	-12514.9518	-12518.6064	-12523.5085	-12529.0342	-12533.1156	-12536.9344	-12541.0815	-12544.6595	-12546.5525	-12547.8984	-12551.0716	-12552.2752	-12554.3651	-12555.4265	-12557.1772	-12554.1791	-12547.8546	-12532.8530	-12469.0717	-12332.1645	-12096.4832	-11886.5158	-11849.3893	-11848.6890	-11926.9358	-12081.6567	-12320.6644	-12492.0063	-12562.4404	-12601.4160	-12613.4195	-12626.8454	-12633.4325	-12641.7376	-12646.9132	-12654.2553	-12657.8115	-12659.0698	-12662.8229	-12666.2259	-12671.9486	-12678.0871
-12083.5825	-12134.7367	-12152.9771	-12164.6414	-12173.2637	-12182.0064	-12189.4908	-12194.8634	-12200.9143	-12207.7422	-12212.8084	-12217.6229	-12221.3869	-12224.0349	-12229.3637	-12233.7843	-12237.6687	-12241.8924	-12243.3367	-12246.4224	-12250.0223	-12254.5305	-12258.6666	-12262.1243	-12266.3479	-12272.2129	-12276.5131	-12277.6182	-12281.8966	-12284.9057	-12286.7549	-12290.5955	-12291.7882	-12296.3511	-12298.1565	-12300.9467	-12303.2555	-12306.8555	-12309.0001	-12313.3003	-12317.5349	-12323.4655	-12328.3238	-12335.6222	-12342.2093	-12348.4791	-12352.4073	-12357.2328	-12361.7847	-12365.2205	-12371.4793	-12374.4993	-12377.8476	-12378.6245	-12382.5527	-12386.0104	-12389.6651	-12393.0024	-12395.9239	-12399.0315	-12402.6861	-12403.1566	-12403.7256	-12405.2575	-12407.8398	-12411.1881	-12416.6701	-12419.9418	-12426.6821	-12432.1094	-12439.6813	-12443.6642	-12453.4573	-12460.4603	-12465.1216	-12467.0474	-12469.4328	-12477.2782	-12481.8301	-12483.3730	-12487.9358	-12490.6604	-12497.8822	-12504.2942	-12509.0102	-12512.3147	-12515.6411	-12518.8472	-12523.9243	-12527.8634	-12530.4458	-12532.2184	-12535.6323	-12539.6371	-12542.8541	-12547.1981	-12549.5506	-12550.9074	-12551.0278	-12552.4503	-12551.1919	-12550.4260	-12545.2613	-12527.2616	-12460.2305	-12351.0505	-12143.7967	-11984.6880	-11937.0463	-11859.3575	-11862.7715	-11965.0689	-12208.4972	-12449.6386	-12563.0531	-12593.4830	-12611.9642	-12622.2716	-12631.7584	-12636.6714	-12642.9740	-12646.7053	-12654.1240	-12656.0717	-12659.2011	-12662.6698	-12667.6593	-12674.8373
-12049.0493	-12118.6081	-12145.9523	-12160.1770	-12169.1823	-12179.4460	-12186.5802	-12192.9157	-12200.4438	-12204.4814	-12211.2436	-12214.0776	-12215.9816	-12220.0411	-12224.6805	-12228.1710	-12231.6397	-12236.8590	-12241.9799	-12243.6212	-12246.6412	-12251.6965	-12255.7341	-12258.8198	-12264.0172	-12267.1357	-12271.3156	-12277.3119	-12279.4675	-12281.8528	-12284.6102	-12287.1816	-12292.0399	-12296.5918	-12299.1522	-12301.0780	-12305.5534	-12308.0481	-12311.5168	-12315.4888	-12320.7847	-12326.2558	-12330.6216	-12335.2720	-12341.3339	-12345.2621	-12350.0876	-12355.1428	-12357.9221	-12361.1391	-12365.4831	-12369.7286	-12373.9522	-12376.6112	-12381.9290	-12384.0299	-12385.1788	-12389.4243	-12390.1793	-12393.2869	-12393.7574	-12395.2127	-12393.8559	-12396.3835	-12400.5962	-12403.9116	-12409.5687	-12412.2823	-12418.6616	-12423.3448	-12430.2164	-12438.7840	-12446.8812	-12452.6367	-12458.7095	-12462.9113	-12470.2972	-12474.0175	-12479.2040	-12484.0076	-12485.5833	-12489.4020	-12495.9782	-12501.1757	-12506.3185	-12510.3561	-12513.0807	-12516.8995	-12519.2520	-12524.3510	-12526.2878	-12530.1066	-12535.2056	-12539.8669	-12541.1690	-12542.5915	-12544.8127	-12546.8260	-12549.2333	-12549.7695	-12549.1239	-12548.1500	-12545.5896	-12530.7193	-12500.3551	-12418.5302	-12364.1481	-12203.0699	-12076.9297	-12023.9372	-11924.4082	-12009.9642	-12155.1327	-12384.5113	-12565.9309	-12593.4940	-12608.1892	-12617.2492	-12625.1385	-12632.5353	-12637.3936	-12643.4008	-12646.6068	-12652.8766	-12655.2510	-12660.3500	-12665.4819	-12671.0514
-11976.1313	-12120.6214	-12145.6350	-12160.3958	-12171.4036	-12179.5007	-12187.4337	-12193.2658	-12198.4414	-12204.5690	-12206.2103	-12212.4254	-12214.2527	-12220.1067	-12225.3370	-12227.8756	-12230.5345	-12234.3533	-12239.3429	-12242.0675	-12244.2668	-12250.7226	-12256.4235	-12260.3954	-12264.3565	-12267.3983	-12272.2566	-12274.5216	-12280.7586	-12283.1768	-12288.1007	-12290.2454	-12293.7359	-12297.1061	-12300.7170	-12303.7151	-12307.5120	-12311.2432	-12313.6286	-12317.3380	-12320.1938	-12325.4789	-12329.6697	-12333.7839	-12337.8762	-12342.7017	-12348.9606	-12351.5538	-12355.0225	-12358.9616	-12362.2223	-12367.0040	-12373.1316	-12375.3638	-12377.8586	-12379.8391	-12382.4542	-12384.6974	-12387.1812	-12387.3235	-12387.5314	-12388.3630	-12390.5733	-12387.8596	-12391.5471	-12392.6522	-12395.5628	-12400.4102	-12410.5097	-12418.3442	-12424.9532	-12431.6060	-12442.6685	-12449.4525	-12454.2561	-12458.0968	-12465.3514	-12470.8771	-12474.8491	-12479.4995	-12482.9025	-12488.3297	-12492.1923	-12497.5977	-12501.4164	-12506.2091	-12510.5968	-12514.2187	-12516.8557	-12517.4466	-12520.1493	-12524.7668	-12530.9272	-12535.3259	-12536.9782	-12538.3459	-12540.9720	-12542.4602	-12544.1015	-12546.1586	-12546.5306	-12545.3379	-12543.6638	-12537.1751	-12527.5899	-12495.5077	-12453.0744	-12412.1838	-12308.4311	-12173.8327	-12156.1394	-12159.5971	-12169.3246	-12316.8018	-12525.4015	-12594.0411	-12604.7424	-12612.5441	-12620.9914	-12628.5961	-12634.6252	-12638.6847	-12643.3898	-12648.2372	-12653.5222	-12657.7130	-12662.3962	-12667.0794
-11862.7058	-12099.8971	-12147.1122	-12160.1660	-12172.0054	-12177.0059	-12185.6392	-12191.9090	-12198.1350	-12199.7545	-12202.0195	-12205.6304	-12212.5020	-12214.7998	-12220.9930	-12225.7528	-12228.0835	-12230.8299	-12235.8086	-12238.7958	-12243.2930	-12250.1865	-12253.7317	-12256.4782	-12258.5024	-12263.6999	-12270.7794	-12275.0469	-12278.2310	-12283.1440	-12285.9780	-12289.1950	-12293.7687	-12296.7888	-12300.4981	-12303.2883	-12307.5339	-12310.5320	-12314.4274	-12317.5787	-12322.1962	-12324.5050	-12329.1554	-12332.9414	-12337.9309	-12340.8525	-12345.9953	-12350.1970	-12353.5672	-12358.0862	-12359.0820	-12362.7694	-12367.4527	-12371.8842	-12374.7838	-12377.0598	-12378.5151	-12380.9771	-12380.4956	-12381.6008	-12384.1393	-12380.3205	-12374.1820	-12376.8300	-12361.3689	-12369.8380	-12380.0251	-12386.4043	-12391.8206	-12410.5425	-12419.4166	-12428.1702	-12436.5409	-12443.3688	-12446.6733	-12454.5187	-12463.6006	-12466.6754	-12470.9318	-12473.2515	-12477.9566	-12483.0994	-12488.8112	-12493.6695	-12495.4530	-12498.9217	-12505.0164	-12507.4674	-12511.9974	-12514.3719	-12517.2387	-12524.1431	-12528.6075	-12533.2032	-12532.5466	-12536.7922	-12538.3241	-12541.2018	-12541.9896	-12544.5939	-12545.0206	-12544.1343	-12543.3136	-12541.7489	-12537.5581	-12532.3169	-12512.1834	-12500.6286	-12450.1528	-12401.8874	-12402.4235	-12374.8057	-12346.0609	-12361.1391	-12478.7116	-12589.7190	-12603.0464	-12611.1764	-12619.0218	-12624.2521	-12630.7736	-12636.1133	-12640.4464	-12645.2937	-12649.9551	-12653.4565	-12657.8771	-12661.2473
-11843.7213	-12083.7028	-12150.3401	-12160.8335	-12168.7556	-12175.3536	-12180.7918	-12190.6069	-12191.0883	-12195.6950	-12199.0761	-12205.6413	-12209.9962	-12214.6247	-12218.5201	-12220.9930	-12224.3522	-12227.5583	-12231.8694	-12236.0165	-12239.3757	-12243.6650	-12249.6941	-12252.9986	-12256.1280	-12260.2751	-12263.1528	-12266.6652	-12272.3442	-12278.9204	-12283.9756	-12286.3610	-12291.2411	-12294.9505	-12297.0076	-12301.7783	-12305.3673	-12309.2189	-12311.8232	-12315.9702	-12320.0625	-12323.6734	-12327.3281	-12331.4751	-12335.4799	-12341.2355	-12344.0913	-12348.9058	-12352.1885	-12354.5848	-12356.1276	-12360.8874	-12363.6886	-12370.4617	-12372.5626	-12373.4708	-12374.7072	-12375.0574	-12376.8847	-12375.7467	-12376.4033	-12366.4679	-12356.9373	-12337.2416	-12320.7519	-12312.1186	-12326.1573	-12348.3916	-12379.3795	-12396.2194	-12408.4745	-12418.5631	-12428.6079	-12439.5719	-12445.0429	-12452.0020	-12458.8518	-12463.3927	-12466.9161	-12472.1464	-12475.7354	-12480.0685	-12483.8325	-12487.1808	-12491.2184	-12494.0087	-12499.7532	-12504.1301	-12506.6796	-12508.6820	-12513.7263	-12519.3177	-12525.9267	-12527.2397	-12530.3692	-12532.1090	-12536.3217	-12536.8140	-12538.8055	-12540.6547	-12542.1210	-12542.1866	-12541.4973	-12540.0091	-12539.3964	-12537.1532	-12533.0828	-12530.7740	-12518.1140	-12499.9064	-12492.9692	-12514.1202	-12536.6280	-12534.7132	-12560.7006	-12592.5420	-12602.9589	-12610.6293	-12614.7107	-12621.6808	-12626.5281	-12631.5614	-12637.5358	-12641.8142	-12645.8956	-12646.8803	-12651.3557	-12654.7915
-12007.2834	-12070.9116	-12139.5621	-12151.7625	-12158.7983	-12167.0377	-12172.3117	-12180.2338	-12182.5973	-12185.1030	-12190.3880	-12197.0955	-12200.7283	-12203.7811	-12207.8954	-12211.0904	-12214.4934	-12218.3013	-12223.4659	-12227.7662	-12230.5455	-12235.6226	-12239.1459	-12242.8006	-12248.1950	-12251.1603	-12254.9900	-12260.4173	-12263.5030	-12271.9174	-12275.4408	-12278.8328	-12281.9075	-12288.8120	-12291.7116	-12295.1912	-12299.3492	-12303.1242	-12305.7065	-12309.9302	-12313.4426	-12317.2176	-12322.1306	-12325.3147	-12329.1226	-12333.8496	-12338.6422	-12339.7145	-12344.3430	-12346.9800	-12352.5277	-12356.8717	-12360.3622	-12363.5354	-12366.0411	-12367.0369	-12367.8794	-12367.7919	-12368.7766	-12367.9341	-12361.9926	-12346.8487	-12312.3265	-12261.8835	-12206.1993	-12186.5364	-12188.0574	-12251.8497	-12323.9798	-12369.2472	-12396.4710	-12410.8599	-12421.5174	-12431.0152	-12439.7907	-12448.2817	-12452.9649	-12458.6658	-12463.3927	-12467.6164	-12472.8029	-12475.2758	-12480.6046	-12484.4234	-12488.5923	-12491.1200	-12496.3065	-12499.1514	-12501.5040	-12506.7562	-12510.4437	-12515.0612	-12520.7730	-12523.5741	-12524.4495	-12528.5965	-12532.7217	-12535.5557	-12535.3806	-12538.2256	-12538.9040	-12539.4511	-12538.9259	-12539.7028	-12539.8450	-12539.1666	-12539.9872	-12538.8493	-12536.6171	-12540.1623	-12543.1386	-12552.6800	-12560.9741	-12573.5028	-12584.2042	-12592.2794	-12601.5802	-12607.5983	-12613.8572	-12616.9647	-12622.1294	-12628.7384	-12632.0867	-12634.7456	-12638.5644	-12642.0221	-12645.3375	-12650.4475
-12113.8592	-12125.5453	-12136.4655	-12143.8076	-12152.1127	-12156.7631	-12164.9368	-12170.2875	-12176.1634	-12180.1463	-12185.6173	-12189.7753	-12191.0993	-12195.4980	-12198.7587	-12203.4091	-12206.8887	-12211.5172	-12213.7165	-12219.3189	-12222.6562	-12226.2452	-12229.2543	-12235.4147	-12237.6359	-12242.3301	-12246.0504	-12249.7597	-12256.6314	-12263.4701	-12268.7005	-12270.4074	-12275.5393	-12280.7149	-12284.5227	-12288.3634	-12291.9852	-12292.4666	-12298.0362	-12303.4634	-12308.8579	-12312.9940	-12316.3751	-12319.3075	-12324.0673	-12328.3457	-12332.5693	-12337.1978	-12340.1084	-12344.3102	-12347.8335	-12352.6261	-12355.4273	-12359.2570	-12360.7452	-12361.2376	-12361.3579	-12361.1938	-12360.2747	-12358.3817	-12348.2931	-12324.9974	-12267.7157	-12124.0244	-12028.4126	-11987.9707	-11973.2426	-12046.4123	-12217.3493	-12324.6473	-12385.5399	-12399.8302	-12416.1777	-12427.8420	-12436.6831	-12443.2156	-12449.3322	-12455.6239	-12460.0773	-12465.6030	-12468.4042	-12473.1093	-12476.5123	-12481.8848	-12484.4343	-12488.9097	-12492.0500	-12495.5187	-12497.6961	-12502.8389	-12507.8723	-12512.6102	-12517.2934	-12518.4970	-12521.1231	-12525.0404	-12530.6755	-12533.5205	-12534.5928	-12535.5666	-12537.5909	-12538.7398	-12541.7599	-12543.1386	-12543.8607	-12544.6923	-12545.2723	-12544.9549	-12546.4868	-12549.8789	-12556.2362	-12561.5760	-12568.2068	-12576.0195	-12582.6176	-12589.1719	-12596.5140	-12603.6373	-12608.5065	-12613.8134	-12618.4966	-12623.3877	-12627.4910	-12628.7056	-12634.5158	-12636.8136	-12641.0373	-12643.5758
-12123.1271	-12133.7409	-12141.5645	-12149.0161	-12155.7454	-12162.2779	-12167.0377	-12174.0078	-12177.3998	-12181.9298	-12186.7443	-12189.8409	-12193.4737	-12198.0256	-12202.1289	-12205.6194	-12208.5409	-12209.9087	-12214.1761	-12218.7937	-12220.8398	-12222.3280	-12228.5321	-12232.3509	-12237.6250	-12241.5203	-12246.2911	-12250.6679	-12255.5262	-12263.5358	-12268.5254	-12274.3466	-12276.9508	-12282.3562	-12285.4747	-12288.5165	-12291.0004	-12296.1651	-12300.5528	-12305.3126	-12309.6457	-12314.2414	-12314.6353	-12319.9859	-12325.3585	-12329.7682	-12333.9590	-12336.6835	-12340.1741	-12344.1023	-12348.9824	-12352.2213	-12354.3988	-12355.6680	-12359.0054	-12360.7342	-12360.8874	-12359.6181	-12358.4254	-12355.2741	-12341.8810	-12301.3078	-12167.3659	-11957.3329	-11816.3771	-11704.9977	-11748.4706	-11865.2334	-12127.7556	-12307.0524	-12361.9707	-12402.9378	-12416.4294	-12426.9885	-12436.3877	-12444.2769	-12450.2404	-12454.5297	-12460.5369	-12465.8000	-12469.3671	-12473.9081	-12477.2673	-12480.1232	-12485.6051	-12489.7303	-12490.5838	-12492.8707	-12498.8341	-12503.1672	-12508.2224	-12513.3324	-12516.7135	-12518.6064	-12521.9657	-12526.9662	-12530.2269	-12532.2731	-12534.2098	-12537.0438	-12538.1709	-12540.1623	-12541.8036	-12545.3489	-12546.5853	-12548.9597	-12550.1196	-12552.1329	-12554.5730	-12558.0964	-12563.7644	-12568.4366	-12574.7283	-12578.0219	-12585.7032	-12591.0648	-12597.8489	-12602.2476	-12607.5108	-12612.4675	-12617.2711	-12621.5385	-12625.5871	-12626.6156	-12630.7189	-12633.4544	-12638.2471	-12640.0525
-12129.4516	-12139.2667	-12146.5760	-12151.3030	-12157.7916	-12163.2189	-12170.1671	-12172.8260	-12176.9074	-12183.3085	-12188.3528	-12188.9546	-12191.9090	-12196.4390	-12199.4809	-12203.3216	-12205.6960	-12209.4601	-12212.7318	-12216.2770	-12217.4150	-12220.2380	-12225.1072	-12228.1491	-12232.0226	-12238.4894	-12244.4419	-12249.6503	-12255.7013	-12262.8902	-12267.8032	-12271.6548	-12275.5283	-12278.8328	-12283.2644	-12287.2910	-12292.5870	-12298.1237	-12301.5486	-12304.4701	-12309.6785	-12313.5958	-12319.3294	-12322.4479	-12327.6454	-12331.6064	-12334.3967	-12338.2045	-12341.6403	-12345.4919	-12348.7964	-12349.8797	-12352.4292	-12356.4121	-12358.0425	-12359.7276	-12360.3950	-12359.4978	-12356.6966	-12351.5101	-12333.4119	-12244.2668	-12092.8176	-11808.4988	-11665.2561	-11641.3477	-11651.0096	-11754.0182	-11988.1786	-12197.5551	-12343.0409	-12396.5257	-12413.1905	-12423.5964	-12434.5713	-12440.2721	-12449.5838	-12451.8707	-12457.3527	-12461.4341	-12465.0559	-12471.9166	-12476.3153	-12480.7578	-12481.2393	-12485.1456	-12487.7389	-12492.8597	-12495.9782	-12499.0311	-12504.2504	-12509.4370	-12512.4351	-12516.0022	-12518.7268	-12523.3772	-12525.2920	-12528.9686	-12530.9929	-12535.3040	-12537.8645	-12540.6657	-12542.9635	-12545.0315	-12549.2771	-12551.3998	-12554.3214	-12556.6958	-12561.2696	-12563.6659	-12566.5437	-12570.9533	-12575.8663	-12580.0681	-12586.4145	-12590.8132	-12596.2842	-12601.7552	-12605.1035	-12610.4651	-12613.2225	-12618.7811	-12620.4990	-12623.8035	-12626.0904	-12631.2879	-12634.4173	-12637.7328
-12131.5854	-12138.0631	-12145.3505	-12150.5480	-12156.4567	-12162.4201	-12168.1209	-12172.6838	-12176.3822	-12181.2186	-12185.1796	-12189.2063	-12192.5218	-12195.2026	-12198.6274	-12200.7174	-12204.4596	-12206.7027	-12210.1275	-12211.4734	-12215.0077	-12216.9882	-12220.5335	-12225.7638	-12229.0683	-12234.7253	-12242.0127	-12248.9828	-12255.0010	-12259.1261	-12265.4397	-12269.4992	-12275.1453	-12279.2486	-12284.5446	-12287.8819	-12291.7554	-12296.6137	-12299.4477	-12303.4306	-12307.3807	-12311.7685	-12316.4407	-12322.0759	-12325.5226	-12331.2672	-12334.0246	-12337.8106	-12340.4257	-12343.7850	-12347.7132	-12349.0700	-12353.4249	-12356.4230	-12358.3160	-12358.2504	-12358.9835	-12357.4844	-12354.9349	-12344.7150	-12318.2899	-12247.9105	-12054.5969	-11858.0117	-11685.5646	-11650.1670	-11643.8753	-11696.7912	-11880.3991	-12112.9838	-12304.5576	-12388.1988	-12409.1310	-12420.3795	-12430.9057	-12439.2655	-12445.0757	-12452.3741	-12456.5649	-12462.1344	-12464.3775	-12469.2796	-12473.7221	-12478.1098	-12481.5019	-12484.9924	-12488.9862	-12490.7042	-12496.7879	-12499.2390	-12504.3051	-12508.7039	-12512.6649	-12514.9190	-12518.6611	-12521.6921	-12526.2768	-12529.2312	-12530.8616	-12535.7855	-12538.8602	-12541.3112	-12544.5063	-12546.9026	-12549.7366	-12552.5706	-12555.4922	-12559.4423	-12561.2149	-12564.9242	-12568.1959	-12572.7369	-12576.4791	-12581.6218	-12585.0358	-12591.0648	-12595.7699	-12599.3042	-12603.9655	-12607.7624	-12612.2268	-12615.9690	-12619.9191	-12622.5561	-12626.0685	-12629.4715	-12631.7037	-12632.8307
-12131.8151	-12136.5421	-12143.5450	-12147.7577	-12154.9576	-12160.4615	-12165.2432	-12168.6461	-12172.3336	-12177.2247	-12180.8575	-12184.4465	-12188.7577	-12190.2458	-12192.3576	-12194.0427	-12197.4129	-12198.9447	-12202.0632	-12203.0371	-12203.0699	-12205.4006	-12209.4382	-12214.8764	-12220.1943	-12228.0069	-12234.3423	-12243.2711	-12248.8515	-12255.1870	-12259.3559	-12264.4878	-12269.9369	-12274.9374	-12279.7519	-12284.3586	-12288.3415	-12292.9919	-12296.2964	-12300.3340	-12303.0476	-12309.2408	-12313.2237	-12316.5939	-12322.2838	-12325.4898	-12330.1402	-12331.7815	-12335.6331	-12339.1674	-12343.3035	-12346.5314	-12350.3064	-12353.0091	-12356.6528	-12356.8279	-12356.0401	-12355.8869	-12351.8274	-12346.2141	-12315.5763	-12261.1833	-12134.2880	-11975.4529	-11891.4725	-11800.0077	-11705.0962	-11693.9244	-11800.8941	-12008.8700	-12271.3594	-12385.6165	-12403.8350	-12415.1601	-12427.9623	-12435.3154	-12441.0709	-12445.8307	-12452.1552	-12455.3284	-12460.9198	-12465.3404	-12470.3847	-12474.3676	-12477.3877	-12481.1517	-12484.6313	-12488.3626	-12492.7394	-12496.2627	-12498.4621	-12505.0273	-12507.5002	-12511.4941	-12514.3500	-12518.2891	-12521.6374	-12524.8106	-12528.0823	-12530.9819	-12534.8992	-12537.7660	-12542.0881	-12544.5282	-12549.0692	-12551.5311	-12554.7153	-12556.7943	-12560.4489	-12563.1844	-12567.0360	-12571.0518	-12576.4791	-12578.9301	-12584.7403	-12588.9421	-12593.7238	-12597.4003	-12600.9236	-12604.3157	-12608.2658	-12611.6797	-12615.9252	-12619.3939	-12623.3658	-12626.0685	-12627.7427	-12629.0338
-12128.7732	-12134.0473	-12139.7481	-12145.0550	-12149.6179	-12155.6470	-12159.8706	-12163.2298	-12168.1209	-12171.8631	-12175.2989	-12178.4284	-12181.6344	-12182.8927	-12184.6544	-12187.6963	-12187.0726	-12189.7096	-12190.0598	-12190.3333	-12192.7078	-12190.8695	-12197.8287	-12205.6851	-12209.4491	-12216.6381	-12224.7352	-12231.2786	-12240.7106	-12245.0765	-12252.5281	-12256.3140	-12263.0543	-12267.1467	-12273.4055	-12278.1872	-12282.0607	-12287.0065	-12291.2849	-12295.7164	-12300.0167	-12303.6385	-12307.5010	-12311.5934	-12316.0796	-12320.9817	-12323.2686	-12327.1858	-12329.6150	-12333.6307	-12337.7121	-12341.6950	-12344.4634	-12347.4396	-12350.5472	-12350.4377	-12351.1490	-12349.9672	-12348.9715	-12343.3473	-12329.8557	-12303.5181	-12265.8008	-12159.4548	-12111.3206	-11970.9776	-11899.8323	-11836.2588	-11875.2892	-12001.3966	-12141.0831	-12360.2199	-12400.7384	-12411.9212	-12420.3795	-12428.4109	-12434.3525	-12441.2460	-12445.5790	-12451.0939	-12454.4750	-12459.7819	-12464.7605	-12467.9446	-12471.4023	-12475.2977	-12480.2326	-12483.7231	-12487.8045	-12490.6276	-12494.4682	-12498.7903	-12502.1386	-12506.8109	-12509.4151	-12512.6540	-12516.4290	-12520.2149	-12524.5152	-12523.0380	-12530.3582	-12534.7460	-12538.9040	-12541.3331	-12545.6224	-12549.1786	-12551.6515	-12554.9013	-12556.7943	-12560.9413	-12564.9242	-12568.8305	-12573.1746	-12578.0328	-12581.0857	-12588.1214	-12591.2509	-12594.2927	-12597.2909	-12600.4531	-12603.8561	-12608.7035	-12613.0037	-12614.8857	-12618.3215	-12620.0832	-12622.0747	-12622.1294
-12123.5976	-12129.1781	-12134.4741	-12139.2557	-12144.0374	-12148.3377	-12152.5722	-12155.5157	-12162.0262	-12164.4663	-12168.3617	-12168.6790	-12171.8741	-12173.2199	-12176.4916	-12177.1372	-12177.6734	-12175.4631	-12178.1220	-12175.8679	-12175.0910	-12178.9317	-12176.8855	-12189.2720	-12198.0913	-12204.0328	-12210.5652	-12222.3936	-12229.2105	-12237.2967	-12242.1112	-12249.3986	-12254.6508	-12260.3298	-12264.2361	-12270.0901	-12275.9332	-12281.0541	-12284.3039	-12289.9828	-12293.9110	-12297.0404	-12302.7741	-12304.2075	-12310.5211	-12313.3113	-12317.2833	-12318.9574	-12323.0169	-12326.7044	-12330.5998	-12333.2149	-12337.9419	-12339.9771	-12342.9424	-12343.5223	-12343.7521	-12344.8135	-12342.1874	-12340.1850	-12335.4909	-12327.3062	-12305.7503	-12265.9321	-12231.0378	-12187.1273	-12116.0257	-12096.6583	-12051.0189	-12079.7856	-12162.2669	-12325.5664	-12395.0486	-12407.7085	-12414.4817	-12422.1849	-12428.1374	-12433.3239	-12440.0533	-12443.1609	-12449.2884	-12452.5382	-12456.7290	-12459.9788	-12464.5088	-12468.1088	-12473.7549	-12477.2673	-12479.5870	-12483.9310	-12487.3996	-12491.9078	-12495.1795	-12500.0596	-12501.1101	-12506.7233	-12509.8856	-12515.0393	-12516.7901	-12519.9961	-12522.6550	-12528.6403	-12532.5904	-12537.4377	-12540.7751	-12545.0097	-12546.7713	-12551.2795	-12554.2667	-12557.1772	-12561.0945	-12566.1935	-12569.6403	-12572.5837	-12578.1204	-12582.4097	-12587.1585	-12589.8065	-12593.9754	-12596.9079	-12600.9346	-12604.9066	-12608.5831	-12611.4390	-12614.2073	-12616.5270	-12616.2754	-12617.5556
-12119.1333	-12123.1818	-12129.9440	-12133.4127	-12137.7348	-12141.5098	-12145.9085	-12150.1540	-12154.1698	-12157.1023	-12159.1703	-12161.0195	-12163.6019	-12165.8997	-12167.3769	-12167.3112	-12164.4663	-12167.3988	-12160.2426	-12156.5223	-12153.2507	-12138.2053	-12149.2677	-12161.9824	-12174.2704	-12189.6002	-12201.8663	-12210.4011	-12221.2009	-12227.9084	-12236.0384	-12243.5227	-12247.2759	-12253.0752	-12258.1195	-12263.7984	-12269.6852	-12274.9046	-12279.6863	-12283.1330	-12286.9956	-12289.8515	-12294.2611	-12299.3492	-12303.2227	-12307.0415	-12310.0834	-12314.2414	-12317.4146	-12320.8941	-12323.8485	-12326.8685	-12329.9870	-12334.4733	-12335.4580	-12337.5151	-12337.6683	-12338.2483	-12338.1717	-12336.7711	-12335.1079	-12332.3724	-12326.3980	-12323.1810	-12297.9048	-12266.1947	-12256.2921	-12252.7141	-12293.0903	-12301.6689	-12244.2778	-12321.4084	-12390.8906	-12400.6181	-12407.2818	-12414.7115	-12419.4822	-12428.2687	-12431.9781	-12437.4600	-12441.0053	-12445.4477	-12448.6319	-12453.6434	-12456.8822	-12461.4451	-12466.4128	-12469.3452	-12471.2492	-12476.2606	-12480.7031	-12484.3906	-12488.4829	-12491.9734	-12495.7813	-12499.4688	-12504.5459	-12507.6425	-12512.2382	-12513.9889	-12519.9085	-12523.0817	-12526.9334	-12530.5989	-12536.4530	-12539.7356	-12543.7623	-12545.9616	-12550.6558	-12554.9451	-12558.5450	-12562.1449	-12565.1431	-12569.6403	-12573.6232	-12577.7921	-12581.0091	-12585.9877	-12590.0582	-12593.8004	-12596.3389	-12601.0112	-12605.2348	-12606.7995	-12608.5831	-12610.0822	-12611.6250	-12610.8262
-12115.8944	-12120.7308	-12124.7794	-12130.3708	-12133.7300	-12137.9974	-12140.8861	-12145.5146	-12149.0927	-12152.5504	-12155.6689	-12157.8135	-12159.4220	-12160.6475	-12161.6760	-12161.6760	-12159.7174	-12153.9728	-12142.3195	-12120.5886	-12098.2449	-12063.3068	-12061.1512	-12093.4632	-12147.2982	-12167.9896	-12190.4975	-12202.6103	-12212.3269	-12221.4854	-12231.0050	-12238.4456	-12242.4285	-12250.6789	-12255.2636	-12260.3954	-12264.2689	-12271.2937	-12275.3532	-12280.8133	-12282.8048	-12286.8862	-12291.0004	-12295.0708	-12298.6598	-12303.8573	-12308.0044	-12311.7356	-12315.5435	-12317.3708	-12321.5944	-12324.7676	-12328.4223	-12331.3438	-12333.8167	-12334.1340	-12335.9067	-12336.8149	-12337.5370	-12337.2307	-12337.9528	-12337.0118	-12337.4495	-12334.9656	-12331.1469	-12325.8290	-12325.2710	-12334.3091	-12346.0609	-12358.4583	-12369.4551	-12380.4081	-12388.0675	-12397.2917	-12403.7585	-12410.6410	-12416.1339	-12423.7715	-12428.3125	-12433.8820	-12437.8758	-12440.7536	-12444.9991	-12448.9492	-12453.5886	-12456.8384	-12462.6487	-12463.7976	-12465.8875	-12467.6602	-12473.6126	-12480.6374	-12483.1432	-12486.1960	-12490.1352	-12494.0853	-12498.7028	-12501.0554	-12506.3185	-12510.4108	-12510.6297	-12516.8448	-12521.8781	-12526.1127	-12530.5552	-12536.0043	-12539.4511	-12543.7404	-12545.8084	-12551.0387	-12555.2186	-12557.6915	-12563.3705	-12567.0470	-12570.6032	-12574.0171	-12577.5623	-12580.7793	-12586.1081	-12589.7190	-12592.7937	-12597.3565	-12601.1206	-12602.2805	-12605.0816	-12604.7971	-12605.3442	-12604.4361
-12116.7698	-12121.7375	-12125.7313	-12130.8960	-12135.5026	-12138.2053	-12143.6216	-12145.0879	-12149.0270	-12152.2221	-12156.5223	-12157.0257	-12158.8421	-12159.4658	-12158.1418	-12158.5685	-12155.1655	-12140.9189	-12114.7346	-12044.7600	-11986.2090	-11930.1309	-11921.6070	-11965.4190	-12054.3343	-12113.9905	-12177.9250	-12196.8439	-12212.2831	-12220.2599	-12227.5145	-12238.6754	-12243.2273	-12249.9676	-12255.8654	-12260.1875	-12264.9254	-12269.3023	-12274.3247	-12277.8480	-12283.0236	-12285.9014	-12290.0594	-12293.5608	-12297.8720	-12301.9753	-12307.4901	-12311.1995	-12314.9417	-12317.6006	-12320.7300	-12324.0455	-12327.1311	-12330.4247	-12333.5213	-12334.8234	-12336.3553	-12338.7297	-12340.8853	-12340.5352	-12342.6689	-12344.0804	-12344.6931	-12344.3102	-12342.8768	-12343.7959	-12346.2469	-12352.5277	-12360.2309	-12367.6496	-12376.8410	-12383.8548	-12392.3349	-12397.9810	-12404.3603	-12409.7985	-12416.4294	-12420.7515	-12427.4590	-12430.7307	-12435.5780	-12439.6266	-12442.9201	-12445.0538	-12450.5358	-12454.4750	-12455.8755	-12460.4165	-12461.6092	-12464.1696	-12469.1045	-12475.5822	-12478.2083	-12482.8477	-12484.2483	-12491.5795	-12494.4026	-12498.2870	-12502.7623	-12508.6820	-12510.4874	-12513.1245	-12518.5408	-12523.5304	-12528.3339	-12532.5466	-12537.5690	-12540.1623	-12543.9811	-12547.1871	-12552.6691	-12555.9408	-12560.3504	-12563.3814	-12567.5722	-12571.5004	-12575.5380	-12579.0176	-12582.3112	-12586.5129	-12589.6095	-12592.9906	-12596.1529	-12599.2167	-12599.4246	-12601.3394	-12600.6173	-12599.8076
-12122.4268	-12127.3398	-12131.9902	-12136.2467	-12140.4484	-12143.5888	-12146.2915	-12150.8543	-12154.4433	-12157.2664	-12160.1442	-12161.7417	-12162.3654	-12163.5143	-12162.3107	-12162.7374	-12151.5546	-12128.4231	-12087.3356	-11906.1458	-11782.1831	-11725.1421	-11690.3135	-11717.5483	-11864.2049	-12084.8955	-12160.5490	-12194.5789	-12213.0819	-12222.9954	-12233.4123	-12244.0370	-12250.1974	-12255.7998	-12259.3231	-12264.5644	-12269.0506	-12274.1715	-12276.6006	-12281.8309	-12286.2187	-12289.4466	-12293.6156	-12297.7517	-12300.5747	-12306.4397	-12307.9825	-12313.7927	-12317.1629	-12320.6206	-12323.8047	-12326.5293	-12329.7025	-12333.4775	-12335.8520	-12337.2744	-12341.6294	-12343.1394	-12345.9187	-12346.4767	-12348.7308	-12349.6390	-12351.5429	-12351.5101	-12353.8079	-12356.4996	-12359.8589	-12364.4764	-12370.1663	-12375.7467	-12383.3953	-12390.5733	-12395.7270	-12402.7518	-12407.5225	-12413.2343	-12418.4755	-12422.2615	-12426.3319	-12432.5252	-12436.0157	-12441.0819	-12442.9967	-12446.9359	-12450.1966	-12450.0544	-12452.0568	-12454.7594	-12458.5782	-12459.3551	-12465.7125	-12470.8334	-12474.5646	-12477.7816	-12482.0052	-12487.3012	-12491.7108	-12495.3436	-12500.6943	-12505.2352	-12508.8571	-12513.7153	-12518.1797	-12522.6878	-12527.7868	-12532.1855	-12536.9672	-12539.9544	-12543.0839	-12547.1215	-12550.3494	-12555.3609	-12558.0745	-12562.5170	-12565.9309	-12571.4457	-12574.3782	-12578.8535	-12580.8121	-12584.9592	-12587.2461	-12592.0277	-12594.5663	-12594.6757	-12596.3827	-12597.4222	-12598.8228	-12597.0064
-12128.5544	-12134.4850	-12137.8223	-12142.6368	-12145.8319	-12149.4866	-12152.8458	-12156.5223	-12160.4287	-12163.7660	-12166.5234	-12167.5957	-12168.1209	-12167.7051	-12167.4206	-12164.1927	-12152.6270	-12124.9654	-12048.8633	-11780.4543	-11623.2605	-11541.3262	-11488.1915	-11542.8909	-11752.2128	-12017.1203	-12126.5958	-12198.1788	-12215.7299	-12229.4841	-12240.6012	-12248.2497	-12254.3335	-12260.7456	-12265.8555	-12270.7138	-12274.7186	-12280.9556	-12282.7720	-12287.9366	-12290.5080	-12293.9766	-12299.0538	-12300.9467	-12306.4397	-12308.8250	-12312.1842	-12316.6924	-12321.4522	-12325.4242	-12328.1268	-12330.5013	-12335.2283	-12337.1759	-12341.0385	-12343.0409	-12346.2688	-12348.2165	-12350.3502	-12352.4292	-12354.4644	-12357.1233	-12358.1081	-12360.2637	-12361.1719	-12365.1439	-12369.8161	-12374.2696	-12378.3728	-12384.1393	-12390.9562	-12397.1494	-12401.2199	-12406.0235	-12411.5273	-12416.2652	-12419.6245	-12424.6031	-12429.4614	-12433.4115	-12436.5628	-12441.9463	-12444.0909	-12446.5748	-12449.3322	-12450.6781	-12452.6586	-12454.0920	-12456.9807	-12457.8013	-12463.6554	-12466.3362	-12470.3738	-12471.9276	-12477.4861	-12485.4301	-12491.1637	-12495.2342	-12499.2171	-12504.3489	-12508.9884	-12512.2710	-12519.6569	-12522.7535	-12528.3011	-12532.5138	-12536.4748	-12540.8954	-12543.3793	-12547.7342	-12551.8813	-12556.1377	-12559.3219	-12561.8386	-12565.0774	-12571.6098	-12575.1769	-12577.1137	-12582.0486	-12584.3245	-12587.9901	-12590.5068	-12593.8222	-12595.1900	-12597.4003	-12597.0830	-12598.0459	-12596.8423
-12128.8608	-12133.2814	-12138.3913	-12142.2648	-12145.9523	-12148.3486	-12149.6617	-12153.5680	-12157.0257	-12159.8925	-12163.1861	-12165.5167	-12166.2717	-12167.3659	-12166.7532	-12163.0000	-12149.9571	-12101.8010	-11981.5695	-11759.7190	-11545.8344	-11490.2924	-11485.8390	-11500.1403	-11643.8863	-11914.7135	-12065.1560	-12182.3785	-12209.7774	-12225.8294	-12237.1763	-12248.0528	-12255.2526	-12259.2903	-12264.2908	-12271.2718	-12275.2329	-12277.0383	-12280.6273	-12285.2011	-12287.8381	-12292.6745	-12296.3511	-12300.1370	-12304.9625	-12307.4573	-12311.2542	-12315.3793	-12318.0601	-12321.4522	-12323.8047	-12327.8971	-12333.0836	-12335.7206	-12338.1060	-12340.9510	-12345.8639	-12349.2669	-12350.0657	-12352.5386	-12355.5258	-12357.7908	-12360.5263	-12362.3427	-12365.6253	-12368.2624	-12372.2891	-12377.8695	-12381.9837	-12386.4262	-12393.6917	-12397.0072	-12403.3427	-12406.6800	-12411.1662	-12415.8057	-12419.5041	-12424.4171	-12428.7283	-12431.9343	-12436.5409	-12439.1670	-12440.7645	-12443.3140	-12445.4259	-12447.6143	-12448.6866	-12449.8355	-12450.1419	-12450.4045	-12452.2647	-12456.5649	-12463.6772	-12467.1021	-12469.7939	-12476.6764	-12483.9420	-12487.0276	-12493.7132	-12500.0487	-12507.2814	-12509.7215	-12514.6345	-12520.0180	-12526.2768	-12530.3473	-12534.8226	-12537.8864	-12542.4383	-12545.6881	-12549.6600	-12553.5882	-12556.9256	-12559.9675	-12562.9547	-12568.1303	-12571.3801	-12576.2055	-12579.0723	-12583.2084	-12585.5500	-12589.6971	-12589.9050	-12594.6101	-12595.9559	-12596.0325	-12595.7043	-12595.6715
-12127.2413	-12131.9574	-12135.6011	-12140.0983	-12143.7201	-12148.3486	-12151.2373	-12154.3667	-12157.2773	-12162.2560	-12162.9672	-12164.4991	-12164.9587	-12166.0857	-12164.0614	-12160.9867	-12148.0641	-12087.9593	-11978.9982	-11836.7622	-11637.8353	-11554.1722	-11501.9238	-11493.2139	-11572.9598	-11759.1500	-11952.8028	-12151.1498	-12207.2279	-12225.4464	-12235.0208	-12244.6279	-12252.1670	-12255.9748	-12260.8550	-12266.0525	-12270.1667	-12275.0797	-12277.4869	-12282.0498	-12284.9823	-12290.4752	-12294.3706	-12298.2331	-12299.9401	-12305.1813	-12308.6937	-12311.3527	-12315.1277	-12318.5088	-12320.2376	-12325.6102	-12329.6150	-12333.0398	-12335.4471	-12337.8215	-12342.6798	-12343.9053	-12346.6846	-12349.7046	-12353.9939	-12356.7294	-12359.6838	-12362.6053	-12365.9317	-12369.4222	-12373.0441	-12377.1145	-12381.1631	-12386.5903	-12390.5404	-12395.7379	-12400.6181	-12404.9949	-12407.8180	-12414.0768	-12416.6373	-12422.1521	-12426.1569	-12430.2383	-12432.2188	-12432.8753	-12436.0047	-12438.1822	-12441.8040	-12442.2089	-12443.3797	-12442.6575	-12441.4101	-12441.4758	-12442.4277	-12446.2356	-12449.8683	-12457.8561	-12464.3009	-12468.3167	-12476.3153	-12480.9985	-12488.3844	-12493.8992	-12500.0049	-12504.3489	-12508.5835	-12517.6873	-12522.8410	-12527.8634	-12531.2774	-12536.9454	-12539.0025	-12544.2109	-12546.5306	-12550.2619	-12551.9250	-12557.5712	-12561.6635	-12564.9899	-12568.6664	-12572.7259	-12575.1113	-12580.1228	-12582.5300	-12584.3792	-12587.7275	-12590.5834	-12592.7827	-12592.3341	-12594.1724	-12592.9469
-12119.6804	-12124.5934	-12129.1562	-12132.0887	-12136.3780	-12139.4527	-12145.0003	-12148.4580	-12150.4276	-12153.5789	-12155.1217	-12157.5947	-12160.2536	-12159.7940	-12159.2579	-12155.8986	-12146.2587	-12106.8453	-12070.6271	-11963.2744	-11861.5678	-11712.6244	-11658.9644	-11553.9534	-11621.6739	-11724.5950	-11949.9688	-12165.9325	-12199.7873	-12218.6952	-12229.0026	-12237.6578	-12244.4857	-12251.3135	-12255.1323	-12260.8988	-12264.3783	-12268.8099	-12271.7314	-12275.9222	-12279.7519	-12284.3367	-12289.1074	-12292.0618	-12295.7602	-12298.4848	-12303.2883	-12304.7546	-12307.9168	-12309.4597	-12315.7732	-12319.6905	-12323.8376	-12327.9627	-12330.9280	-12333.4119	-12337.8325	-12341.5418	-12344.3539	-12347.3192	-12349.4420	-12352.7684	-12356.5215	-12360.7123	-12363.3275	-12369.4988	-12371.9608	-12375.8781	-12379.8719	-12384.7740	-12387.9581	-12392.3021	-12395.8802	-12400.2679	-12405.8156	-12408.8027	-12413.3218	-12417.8409	-12420.3357	-12422.8086	-12425.7082	-12426.8790	-12430.1617	-12432.7221	-12433.9914	-12435.7421	-12435.8078	-12435.0637	-12432.4814	-12429.0893	-12429.2425	-12425.6098	-12432.3610	-12440.4363	-12450.3607	-12459.0487	-12469.2468	-12476.6326	-12481.8192	-12488.7346	-12494.7199	-12502.5216	-12503.8018	-12511.8114	-12518.4642	-12524.2744	-12527.5023	-12531.5837	-12535.8621	-12537.6347	-12540.9173	-12545.3160	-12550.1196	-12553.5554	-12558.0745	-12560.4380	-12565.9418	-12568.6226	-12572.5837	-12577.3325	-12580.0681	-12582.9568	-12585.3093	-12588.4497	-12589.1937	-12590.9773	-12590.9773	-12591.4916
-12111.3206	-12116.3212	-12120.1728	-12123.3897	-12128.1824	-12131.3446	-12132.7890	-12137.5816	-12142.3524	-12146.5869	-12147.3091	-12150.4604	-12151.0513	-12152.1783	-12150.5917	-12150.2963	-12144.3219	-12133.0297	-12105.2587	-12055.5161	-12018.3349	-11945.3732	-11823.6207	-11773.8781	-11787.0633	-11779.2944	-11885.8811	-12120.3807	-12197.8068	-12210.7294	-12219.9645	-12226.9455	-12235.3818	-12240.9185	-12246.3786	-12248.3154	-12255.1432	-12258.0319	-12262.6823	-12265.5601	-12270.2652	-12275.3642	-12279.4456	-12282.9142	-12285.5403	-12290.9019	-12294.2064	-12296.9529	-12299.6665	-12302.9601	-12307.5448	-12312.0858	-12315.5435	-12320.8832	-12324.6692	-12327.1092	-12330.0855	-12333.6635	-12337.6027	-12340.0099	-12345.3059	-12347.9867	-12350.7660	-12354.5082	-12358.8412	-12363.5245	-12367.5621	-12370.5383	-12374.9042	-12377.2568	-12382.8153	-12385.4086	-12390.3325	-12396.3507	-12400.7603	-12403.3536	-12407.1833	-12411.3194	-12413.7267	-12416.5388	-12418.5193	-12421.5065	-12423.4323	-12424.7453	-12426.6055	-12424.5265	-12424.7563	-12420.5436	-12413.9018	-12408.2228	-12398.3640	-12370.3961	-12385.8135	-12408.2119	-12424.1216	-12446.8702	-12457.7795	-12467.1678	-12477.2126	-12483.5371	-12493.1552	-12496.2518	-12503.0578	-12505.1367	-12511.6910	-12518.1140	-12523.0161	-12525.9705	-12529.6579	-12533.9582	-12537.0767	-12541.7708	-12544.5720	-12548.5002	-12550.8965	-12556.5535	-12560.0003	-12564.4537	-12567.1455	-12572.4852	-12574.8377	-12576.5775	-12580.7683	-12585.0029	-12587.9463	-12588.2090	-12588.4278	-12588.9092
-12098.9780	-12103.5518	-12105.5104	-12111.5285	-12113.9248	-12119.7789	-12123.3460	-12126.6505	-12129.8237	-12133.3908	-12139.2448	-12142.3305	-12144.0046	-12143.1183	-12143.0308	-12141.5098	-12139.0697	-12134.6163	-12128.6201	-12117.3169	-12077.0282	-12058.7987	-11999.2519	-11992.5992	-11946.4783	-11955.6915	-11942.2656	-12097.1507	-12186.3504	-12200.9143	-12212.0096	-12219.4940	-12223.5972	-12232.5588	-12235.1192	-12239.7149	-12244.4419	-12248.1950	-12252.5937	-12257.0581	-12261.6319	-12266.2823	-12268.3722	-12272.8913	-12276.8414	-12280.9884	-12282.8704	-12285.9123	-12290.2016	-12292.2040	-12297.9814	-12302.5990	-12307.5010	-12311.4730	-12315.0292	-12318.0383	-12321.4194	-12324.8552	-12329.8010	-12333.9918	-12337.7340	-12341.5637	-12346.2469	-12349.3545	-12352.8450	-12357.5282	-12361.2594	-12365.5706	-12368.0326	-12372.5188	-12375.5388	-12379.7953	-12384.2269	-12389.8401	-12392.5866	-12395.9130	-12399.7099	-12404.5791	-12406.9317	-12409.1310	-12412.0963	-12413.3218	-12415.7181	-12416.4184	-12417.3047	-12416.1558	-12411.9322	-12405.1809	-12384.1721	-12358.4473	-12323.5312	-12282.3780	-12300.7826	-12318.4212	-12394.1185	-12417.4360	-12439.1670	-12455.7880	-12466.8614	-12478.0770	-12485.1675	-12491.5248	-12496.1752	-12500.7380	-12504.2942	-12509.6668	-12514.5469	-12516.7463	-12524.4714	-12526.7802	-12530.8944	-12534.0785	-12538.6961	-12541.4535	-12545.2066	-12548.5658	-12552.5925	-12557.9213	-12562.8781	-12567.3315	-12569.4433	-12571.4566	-12574.2906	-12577.3107	-12580.7793	-12582.9568	-12584.6090	-12585.3093
-12087.4997	-12092.8832	-12097.7087	-12102.1621	-12108.7492	-12112.0428	-12114.8002	-12118.9035	-12124.8341	-12127.3070	-12131.6072	-12132.1872	-12134.5069	-12136.0278	-12135.9184	-12135.9622	-12134.3865	-12133.4455	-12130.1191	-12127.3727	-12122.1971	-12114.7236	-12095.2905	-12089.8085	-12114.3516	-12147.7577	-12157.4743	-12156.2378	-12175.5506	-12196.7892	-12203.9453	-12211.1561	-12217.8636	-12222.1638	-12226.0483	-12230.9503	-12235.3818	-12239.8134	-12245.6127	-12249.3658	-12252.8016	-12256.5657	-12259.7389	-12261.2270	-12266.5011	-12268.1096	-12272.8147	-12277.1696	-12279.0517	-12283.3300	-12286.8862	-12291.5475	-12295.2240	-12300.7060	-12304.6999	-12308.4311	-12311.6153	-12318.2571	-12322.4589	-12328.8600	-12330.3153	-12336.0161	-12339.4300	-12343.5552	-12347.0129	-12351.8602	-12355.4273	-12357.2765	-12360.1871	-12364.1153	-12370.6806	-12373.4817	-12379.2044	-12383.2530	-12388.4943	-12391.6893	-12395.4862	-12398.1671	-12402.2703	-12402.3250	-12404.4369	-12407.1067	-12408.0806	-12408.6496	-12409.5030	-12407.7742	-12402.8503	-12390.2012	-12346.6190	-12289.3591	-12177.3123	-12099.2515	-12083.1557	-12160.7022	-12287.7287	-12394.2060	-12420.8609	-12449.3541	-12458.6220	-12471.9276	-12478.8648	-12486.1632	-12494.3479	-12498.7903	-12501.5477	-12503.6267	-12507.8941	-12512.7743	-12516.3524	-12520.4119	-12524.7231	-12528.5747	-12532.9953	-12536.6280	-12539.7137	-12544.0030	-12546.7932	-12551.2138	-12557.4399	-12562.3419	-12562.9437	-12566.7625	-12568.5679	-12574.2688	-12576.7964	-12581.6656	-12582.8802	-12583.1100
-12083.6044	-12089.2724	-12093.8899	-12099.7658	-12103.2563	-12104.9633	-12108.6727	-12113.2902	-12117.0652	-12122.1205	-12124.3089	-12129.0140	-12131.2133	-12134.0911	-12134.8133	-12135.7762	-12135.1415	-12134.2443	-12133.7628	-12133.6425	-12133.0844	-12134.0692	-12134.4303	-12139.1791	-12148.1626	-12157.5290	-12167.4535	-12176.8527	-12187.5431	-12193.4081	-12202.2055	-12208.1580	-12212.2175	-12217.3712	-12222.2951	-12227.8537	-12231.3333	-12234.5721	-12239.5070	-12243.9385	-12246.2692	-12249.0376	-12252.6484	-12256.1718	-12259.5201	-12261.8398	-12265.9431	-12270.5934	-12273.4384	-12277.9465	-12281.3276	-12286.2515	-12292.1055	-12294.9067	-12301.1218	-12305.4220	-12309.9411	-12312.9940	-12319.0012	-12322.8528	-12327.8861	-12331.3985	-12335.0969	-12339.8677	-12343.5880	-12346.8816	-12350.4268	-12353.7532	-12356.4996	-12361.9269	-12366.7195	-12370.3414	-12374.6416	-12379.9485	-12383.4171	-12387.8706	-12392.7507	-12394.2936	-12395.6941	-12399.0752	-12401.0886	-12402.5001	-12404.0101	-12403.0800	-12404.1414	-12401.5810	-12390.7921	-12369.6301	-12299.1632	-12123.9478	-11993.0915	-11860.3314	-11845.2204	-11947.4522	-12167.2565	-12306.3631	-12399.5676	-12440.5348	-12452.5054	-12466.0954	-12476.2059	-12483.1104	-12490.5728	-12497.7727	-12502.0839	-12504.8085	-12507.7847	-12513.0916	-12517.5669	-12521.7030	-12524.6683	-12529.4391	-12532.0433	-12536.2232	-12539.0353	-12541.5629	-12545.1081	-12550.6777	-12556.4551	-12559.2781	-12562.9547	-12565.5808	-12569.7059	-12572.9995	-12576.0742	-12578.4924	-12581.7531	-12581.6765
-12082.6086	-12087.5107	-12092.5112	-12095.1483	-12100.8928	-12103.3767	-12108.4976	-12111.4738	-12117.4810	-12121.6281	-12124.0791	-12126.1253	-12130.8741	-12133.4236	-12135.9294	-12136.7062	-12137.7239	-12138.2491	-12139.6934	-12141.0502	-12141.4442	-12143.8405	-12149.9243	-12151.4124	-12161.3040	-12166.0529	-12175.4302	-12182.1158	-12189.4361	-12195.9576	-12200.7174	-12207.3154	-12210.3464	-12215.8940	-12221.1681	-12225.3370	-12229.5607	-12233.9922	-12239.0256	-12241.9361	-12246.6303	-12247.4728	-12250.0770	-12252.0576	-12255.0995	-12258.2945	-12262.4306	-12266.9388	-12269.6743	-12274.2262	-12278.5264	-12280.9993	-12288.2868	-12291.5366	-12297.0185	-12299.5899	-12304.3935	-12309.3940	-12313.8146	-12320.5331	-12326.2120	-12330.6107	-12334.4404	-12337.5042	-12342.1874	-12347.6256	-12350.3064	-12353.4796	-12356.5981	-12361.9707	-12365.2533	-12368.9080	-12373.5912	-12377.2458	-12382.2354	-12386.3824	-12390.0261	-12392.7617	-12394.8188	-12396.9087	-12399.8193	-12400.2023	-12400.9901	-12400.4758	-12400.3336	-12397.4120	-12387.3672	-12352.3417	-12268.2299	-12001.8780	-11806.7152	-11722.5160	-11716.8589	-11823.5223	-12052.5945	-12242.9319	-12369.7067	-12422.8524	-12450.3170	-12463.7867	-12474.2801	-12482.9353	-12488.5157	-12492.5534	-12498.4949	-12503.5283	-12507.3908	-12510.8813	-12516.3961	-12519.7772	-12523.2787	-12526.3315	-12530.5005	-12534.7351	-12537.7113	-12538.3678	-12541.8036	-12546.0929	-12551.9141	-12555.1201	-12559.5407	-12562.4951	-12565.2744	-12569.8810	-12572.1241	-12575.8335	-12580.3307	-12582.9677
-12079.4683	-12084.0858	-12089.5678	-12092.6535	-12099.0655	-12101.6807	-12105.7074	-12109.6684	-12112.4039	-12117.9515	-12120.5886	-12125.2937	-12127.4492	-12131.9246	-12134.7038	-12137.2971	-12138.8618	-12141.6521	-12143.5341	-12146.3134	-12146.9808	-12150.1869	-12155.4828	-12160.3739	-12164.5648	-12171.2394	-12177.5092	-12183.9322	-12190.4646	-12193.9442	-12199.4590	-12204.3830	-12209.9744	-12214.7342	-12218.2137	-12222.7985	-12226.0811	-12227.8756	-12233.4779	-12236.6511	-12240.7435	-12245.0546	-12245.8425	-12248.7421	-12251.3244	-12254.3116	-12255.7998	-12260.8440	-12261.5553	-12266.9497	-12271.6439	-12276.9945	-12279.5112	-12287.6850	-12292.9043	-12296.2526	-12300.5091	-12307.1400	-12314.1319	-12317.7100	-12323.3999	-12327.5250	-12332.5037	-12335.2283	-12341.3230	-12345.2950	-12349.3107	-12351.9806	-12355.9963	-12359.3993	-12364.3123	-12368.1529	-12372.0702	-12377.1802	-12380.9989	-12384.2925	-12388.5927	-12392.1708	-12392.5538	-12395.3331	-12396.9306	-12398.6813	-12398.6594	-12399.7646	-12397.4339	-12392.9805	-12375.1559	-12331.4204	-12209.9853	-11993.8137	-11798.7603	-11728.4685	-11713.2481	-11773.0027	-11901.1781	-12125.1733	-12334.9219	-12408.3760	-12445.0648	-12460.5478	-12468.9623	-12477.2454	-12482.7164	-12488.7236	-12495.3327	-12496.1314	-12502.8061	-12509.4479	-12513.2886	-12517.3809	-12520.9262	-12524.4604	-12528.5965	-12532.7655	-12533.4986	-12537.9411	-12541.0924	-12546.6838	-12550.0540	-12555.1748	-12555.9408	-12559.3766	-12565.0993	-12567.9661	-12569.2792	-12572.8791	-12577.9562	-12581.7860
-12077.1485	-12081.5691	-12084.9502	-12091.1653	-12096.1987	-12099.5360	-12103.1250	-12109.3511	-12113.2464	-12117.7983	-12122.1752	-12124.8669	-12127.3945	-12129.7909	-12132.5811	-12136.7391	-12140.2624	-12142.1773	-12144.6064	-12146.9152	-12150.6464	-12153.3382	-12159.9253	-12161.7198	-12165.6152	-12170.6048	-12175.6600	-12182.8818	-12188.9328	-12192.6968	-12195.7934	-12202.0085	-12206.6917	-12211.7032	-12215.7299	-12220.4787	-12222.7219	-12224.9869	-12228.7838	-12232.2743	-12235.9399	-12239.3648	-12239.4195	-12242.1112	-12243.3258	-12244.3106	-12246.6959	-12250.3068	-12254.2132	-12257.6271	-12262.6714	-12268.9412	-12274.5654	-12279.0626	-12286.7330	-12292.1712	-12296.7122	-12301.6252	-12307.3697	-12311.6700	-12316.5939	-12321.2881	-12328.2363	-12333.3243	-12337.2525	-12342.9862	-12345.9405	-12350.3940	-12353.2717	-12358.2175	-12361.5658	-12365.8989	-12369.9037	-12374.5212	-12378.1321	-12381.8196	-12385.8463	-12387.6845	-12388.8882	-12391.2845	-12393.6042	-12395.6394	-12396.1099	-12395.3768	-12395.5847	-12390.9125	-12371.9389	-12324.0345	-12234.0469	-12063.5585	-11969.0628	-11841.3250	-11763.2643	-11745.9758	-11848.4483	-12032.8441	-12281.0541	-12408.3651	-12435.0747	-12453.4573	-12466.7738	-12473.4704	-12479.0618	-12486.0100	-12491.4263	-12494.9825	-12498.0682	-12504.4912	-12508.9993	-12514.3390	-12517.4903	-12520.8714	-12524.1978	-12526.7911	-12529.9424	-12533.1375	-12538.1162	-12540.9830	-12546.0163	-12550.8199	-12554.3651	-12557.6696	-12562.8452	-12564.5413	-12567.7801	-12571.4129	-12575.1332	-12575.8663
-12071.8198	-12076.3060	-12081.8427	-12085.7709	-12092.4674	-12095.9689	-12098.4090	-12104.4490	-12109.8544	-12113.9905	-12118.9035	-12119.6147	-12123.2694	-12127.5477	-12130.1738	-12134.0911	-12138.3913	-12141.1378	-12142.9213	-12146.9371	-12150.1978	-12153.7321	-12157.1241	-12161.6651	-12164.1271	-12170.3641	-12173.9749	-12180.2776	-12184.1182	-12190.0926	-12194.4038	-12198.1241	-12203.3325	-12208.5628	-12211.9330	-12215.4126	-12217.0976	-12220.1833	-12223.3127	-12226.4859	-12230.1515	-12231.3223	-12235.3381	-12233.8937	-12234.4955	-12234.6925	-12237.4280	-12239.9009	-12246.4552	-12248.4248	-12254.8587	-12259.6404	-12265.2209	-12271.7533	-12278.7781	-12286.0546	-12289.3153	-12296.6246	-12302.0847	-12309.2518	-12314.1101	-12319.6686	-12323.9907	-12328.4223	-12333.5213	-12338.7625	-12343.0300	-12347.1223	-12350.5143	-12352.7903	-12358.8522	-12360.5920	-12367.3870	-12370.1444	-12373.9413	-12376.4689	-12381.1959	-12383.4828	-12384.7630	-12388.1879	-12391.1641	-12392.1380	-12392.8492	-12392.9586	-12391.9301	-12389.3368	-12380.7692	-12351.6632	-12320.9270	-12211.2655	-12170.3750	-12071.0210	-11932.3849	-11908.0607	-11908.3561	-12023.0619	-12248.4139	-12411.3741	-12437.1646	-12451.5097	-12460.4056	-12468.6449	-12475.2649	-12480.8016	-12487.4106	-12490.0039	-12493.9211	-12497.0177	-12503.9878	-12508.2771	-12512.5117	-12513.7919	-12516.5274	-12519.8319	-12527.1413	-12528.9029	-12533.6299	-12534.9867	-12538.9368	-12542.4383	-12547.3184	-12552.8661	-12557.0022	-12559.8252	-12562.1668	-12567.1345	-12570.6032	-12573.6669
-12066.4581	-12071.2398	-12076.0325	-12080.0920	-12085.2238	-12088.7690	-12092.8832	-12095.7938	-12100.0175	-12104.8101	-12108.2459	-12112.9619	-12116.1680	-12119.1770	-12123.7618	-12129.2985	-12132.8765	-12137.3299	-12140.5141	-12143.4356	-12147.4623	-12151.2373	-12154.7497	-12158.7326	-12163.1532	-12165.5058	-12170.9002	-12175.9992	-12181.9189	-12185.8033	-12190.9789	-12194.8415	-12200.4219	-12203.8030	-12207.1294	-12209.7555	-12213.0491	-12216.0034	-12219.9754	-12220.8617	-12221.5182	-12224.0021	-12223.3127	-12223.7833	-12222.3389	-12222.7109	-12223.8380	-12225.5121	-12224.3741	-12236.4979	-12240.7763	-12249.7707	-12257.8240	-12262.6276	-12271.5454	-12277.0821	-12284.3367	-12291.6788	-12298.3316	-12303.1023	-12309.9740	-12314.2961	-12320.1501	-12323.5859	-12328.4223	-12333.9261	-12338.0294	-12340.2178	-12342.0670	-12347.8663	-12352.9216	-12356.8388	-12359.8807	-12364.9032	-12368.4156	-12371.6982	-12374.8386	-12377.6178	-12378.6792	-12382.8810	-12384.9053	-12388.1660	-12388.3301	-12389.7854	-12388.9429	-12387.4985	-12382.6293	-12373.2301	-12360.4278	-12333.2259	-12298.7912	-12244.2996	-12147.5936	-12097.9494	-12079.1509	-12110.0295	-12192.7078	-12372.7596	-12437.7226	-12447.3517	-12455.2518	-12462.7253	-12470.4941	-12475.1555	-12480.0685	-12486.1304	-12489.0738	-12490.5728	-12495.6828	-12502.6420	-12505.5525	-12507.6753	-12512.4679	-12517.1621	-12521.0356	-12523.6617	-12525.6531	-12529.5376	-12532.7108	-12536.7484	-12541.6286	-12546.2680	-12550.3166	-12552.3190	-12557.4727	-12561.8933	-12565.9747	-12569.2463
-12060.3525	-12065.4952	-12069.5876	-12073.9972	-12078.6476	-12082.2475	-12087.1934	-12090.3556	-12095.1483	-12099.4375	-12103.4752	-12106.6155	-12110.5437	-12113.8592	-12121.1028	-12124.9326	-12128.8279	-12132.0996	-12137.1658	-12139.0916	-12143.6435	-12147.9656	-12152.0908	-12154.7060	-12159.3892	-12163.5690	-12168.1538	-12173.8108	-12177.4217	-12181.4593	-12185.8799	-12191.1649	-12195.5965	-12197.8287	-12201.6693	-12205.1817	-12208.7270	-12212.0424	-12213.1257	-12214.1980	-12215.6533	-12215.2594	-12215.4782	-12214.4168	-12213.7275	-12211.4515	-12206.5385	-12198.7478	-12205.2693	-12200.5970	-12218.6842	-12234.9223	-12246.5865	-12257.4629	-12264.5425	-12274.4122	-12279.2596	-12287.4114	-12292.5651	-12299.4367	-12305.3455	-12309.9083	-12313.7052	-12318.7604	-12324.0673	-12328.3457	-12332.9304	-12334.6155	-12338.1498	-12343.4676	-12348.3806	-12352.1994	-12354.1143	-12359.7385	-12362.5397	-12365.9974	-12368.3499	-12371.2605	-12373.6787	-12375.9218	-12381.1631	-12381.9181	-12384.0737	-12385.2663	-12386.5028	-12384.4785	-12382.2026	-12380.9552	-12374.4337	-12369.5864	-12355.1757	-12325.7743	-12301.1984	-12271.7971	-12301.7017	-12285.9999	-12322.5683	-12352.6152	-12431.5513	-12444.6271	-12452.2865	-12457.4293	-12464.7605	-12471.1616	-12476.3044	-12479.2478	-12480.9110	-12487.0057	-12492.5862	-12496.1314	-12499.3265	-12500.9022	-12508.2552	-12512.5445	-12516.8776	-12518.2235	-12520.7183	-12523.1474	-12527.2507	-12530.3035	-12536.2560	-12538.9587	-12544.2765	-12547.1215	-12551.5640	-12555.3280	-12557.7243	-12563.6878
-12057.5294	-12060.4947	-12066.4691	-12070.1456	-12077.2142	-12078.4944	-12081.0767	-12085.7709	-12089.7100	-12095.2577	-12098.6169	-12102.8296	-12108.8587	-12114.1327	-12115.8397	-12121.9126	-12123.8931	-12128.3137	-12132.1543	-12136.4874	-12140.0655	-12145.0332	-12148.6003	-12152.9662	-12156.7083	-12160.1879	-12166.0201	-12169.7841	-12173.4169	-12177.5749	-12183.1006	-12186.0769	-12190.4865	-12192.9266	-12196.7892	-12199.8639	-12202.9277	-12205.6304	-12207.1513	-12209.1537	-12210.4558	-12210.1713	-12210.5762	-12208.4753	-12197.8505	-12188.2106	-12164.5319	-12139.2010	-12130.7100	-12153.7430	-12169.5653	-12212.0096	-12225.9279	-12247.4181	-12257.6271	-12268.9740	-12274.2590	-12282.0388	-12287.8163	-12295.8040	-12301.2422	-12305.3236	-12310.3460	-12312.4906	-12318.2899	-12322.5683	-12327.6454	-12331.3329	-12335.7754	-12339.4519	-12344.9448	-12347.3411	-12352.4401	-12356.7075	-12359.8698	-12362.5397	-12364.1481	-12368.9736	-12372.6830	-12377.2896	-12378.2853	-12380.0689	-12381.6117	-12383.8220	-12383.9424	-12384.5551	-12382.7278	-12382.1479	-12382.3558	-12380.8786	-12376.5127	-12372.3328	-12361.4236	-12363.1524	-12379.5984	-12397.6856	-12413.5407	-12423.6840	-12432.3391	-12441.3226	-12449.8355	-12454.8689	-12461.0402	-12467.9228	-12470.8881	-12475.4290	-12479.4557	-12482.5742	-12488.8331	-12489.2051	-12492.6737	-12499.8736	-12503.9112	-12507.4346	-12509.5136	-12512.2600	-12515.1487	-12518.2344	-12521.4076	-12527.0756	-12528.9795	-12535.1509	-12537.6566	-12544.4297	-12547.7233	-12551.1591	-12553.5007	-12560.5583
-12051.0626	-12058.1422	-12063.1536	-12066.3815	-12070.1566	-12073.2751	-12076.7656	-12082.7290	-12085.3442	-12090.5854	-12095.0279	-12100.7068	-12104.0660	-12108.2021	-12112.9729	-12116.4525	-12120.2931	-12123.8821	-12127.8979	-12132.5264	-12137.5925	-12142.0350	-12147.0465	-12151.1607	-12154.7497	-12158.0542	-12162.8031	-12166.8735	-12171.7318	-12175.9773	-12179.8399	-12184.7091	-12187.6963	-12190.6069	-12193.4956	-12198.5071	-12201.4067	-12203.1793	-12203.4966	-12205.6304	-12204.5909	-12205.6194	-12201.4395	-12195.8263	-12185.7486	-12140.7110	-12084.2609	-12025.2831	-11987.0515	-11982.6747	-12082.1819	-12159.5095	-12212.8849	-12233.4232	-12250.7117	-12260.3954	-12270.4621	-12279.0407	-12284.9823	-12290.5518	-12298.1784	-12302.9491	-12308.0700	-12311.3964	-12316.3969	-12320.0844	-12324.0236	-12328.5864	-12332.2739	-12338.1717	-12340.2507	-12345.3934	-12348.6870	-12351.9587	-12355.4164	-12360.2528	-12362.4193	-12365.8770	-12369.2143	-12372.2781	-12374.1273	-12376.3376	-12379.5218	-12381.1740	-12383.0013	-12384.1612	-12384.8068	-12384.9162	-12387.1374	-12386.0761	-12385.9010	-12385.0147	-12386.0870	-12389.3806	-12401.2965	-12408.1353	-12417.6111	-12425.9818	-12433.1707	-12440.1846	-12446.3012	-12454.5734	-12458.6767	-12464.0930	-12468.7434	-12472.6279	-12473.4157	-12479.5323	-12481.3159	-12486.6665	-12491.1090	-12494.8621	-12497.4445	-12500.8037	-12505.2133	-12507.7410	-12509.7324	-12513.9013	-12517.5013	-12520.4009	-12524.1869	-12528.7169	-12532.7108	-12536.4530	-12541.5848	-12545.8522	-12551.6734	-12555.5688
-12053.6450	-12055.4614	-12062.4752	-12064.8168	-12069.4891	-12074.0082	-12080.1467	-12082.2913	-12085.6834	-12089.3490	-12095.7063	-12101.1445	-12105.2916	-12109.2745	-12114.1875	-12117.5248	-12121.7922	-12125.9611	-12130.1738	-12134.9008	-12138.7086	-12144.5736	-12147.8562	-12153.8853	-12156.6208	-12161.1618	-12164.4006	-12168.9197	-12171.8522	-12178.2314	-12181.9189	-12186.6568	-12188.5388	-12191.6354	-12195.1588	-12200.0280	-12201.3520	-12201.8553	-12204.4814	-12204.7331	-12205.6085	-12204.7988	-12201.3192	-12187.5541	-12153.5023	-12069.0295	-11957.7487	-11875.3658	-11783.5290	-11781.2749	-11872.6193	-11968.8767	-12151.3139	-12224.4398	-12243.5446	-12258.0866	-12270.8342	-12279.9708	-12286.1968	-12293.7031	-12298.1456	-12304.2512	-12308.3764	-12312.6000	-12316.6924	-12321.4303	-12324.7895	-12328.5208	-12333.6964	-12336.7273	-12340.8197	-12342.9205	-12347.7898	-12351.8164	-12355.5586	-12355.8322	-12362.1348	-12365.9755	-12369.2034	-12371.4027	-12373.2629	-12377.8914	-12381.6336	-12383.5375	-12385.5180	-12388.2645	-12389.1070	-12391.4049	-12390.8359	-12392.0285	-12392.7836	-12395.2236	-12397.6637	-12402.4782	-12408.3541	-12415.1163	-12422.0208	-12427.3386	-12434.5932	-12440.5457	-12447.2532	-12453.8403	-12458.9393	-12462.8785	-12467.0693	-12469.9799	-12471.9385	-12474.5537	-12481.1627	-12483.9529	-12486.5790	-12488.1765	-12493.0567	-12495.7594	-12498.6372	-12500.3551	-12504.2614	-12507.2814	-12509.8200	-12513.4746	-12518.6721	-12523.4538	-12528.7279	-12532.8092	-12537.9958	-12542.4711	-12546.3336	-12551.9469
-12054.0717	-12057.4638	-12060.6479	-12064.6855	-12069.6095	-12072.5529	-12075.9340	-12082.4117	-12085.6177	-12090.5088	-12094.7215	-12100.1160	-12104.7116	-12108.2787	-12113.0823	-12119.2318	-12125.1076	-12130.5021	-12132.8875	-12137.1768	-12141.9256	-12146.9480	-12152.4081	-12156.1503	-12160.0785	-12163.2517	-12168.0443	-12171.4692	-12175.3974	-12180.4636	-12184.5997	-12186.7990	-12190.4646	-12192.4233	-12195.8591	-12199.2402	-12202.6322	-12204.6346	-12205.5647	-12206.4510	-12205.8601	-12205.0176	-12198.2992	-12183.4727	-12147.9109	-11965.0361	-11785.8268	-11620.9079	-11550.6817	-11572.2923	-11707.6457	-11953.4047	-12131.0601	-12214.6685	-12247.6370	-12260.5267	-12274.1715	-12282.4984	-12288.9980	-12295.5195	-12302.5881	-12307.1618	-12312.2280	-12315.0730	-12320.7847	-12323.4984	-12328.0393	-12330.7311	-12333.5979	-12337.7340	-12340.7212	-12345.8421	-12350.9082	-12353.5453	-12355.0115	-12358.4473	-12362.4850	-12368.3280	-12371.0198	-12374.3462	-12376.9394	-12380.4628	-12383.3296	-12384.2706	-12389.0414	-12391.5252	-12393.2541	-12395.4425	-12396.4491	-12397.4777	-12399.3597	-12402.4126	-12406.8113	-12410.8051	-12415.8604	-12419.4166	-12426.6164	-12430.9057	-12435.8953	-12441.6399	-12448.3255	-12452.7680	-12459.2019	-12463.0864	-12466.6972	-12470.7568	-12473.5689	-12474.2692	-12480.5390	-12481.5128	-12485.5395	-12488.4282	-12489.0628	-12493.5600	-12494.2275	-12497.9150	-12497.6961	-12503.6705	-12506.4170	-12508.3537	-12514.4594	-12518.3001	-12524.5699	-12528.9467	-12536.3764	-12541.1143	-12547.0121	-12551.7719



