tgt_test01_2019-05-13_12.54.51, 15um, 128 pixels, Left.wsf

Pixels in X: 	128
Lines in Y: 	128
X Range: 	15.000
Y Range: 	15.000
Z-Drive Calibration: 	1.0000
Z-Sense Calibration: 	1.9316
X Calibration: 	0.5952
Y Calibration: 	0.5940
X Offset: 	25.000
Y Offset: 	25.000
Rotation(°): 	0
Scan Rate(Hz): 	0.50
Scan Type: 	Vibrating
Vpp: 	0.597
Phase: 	86.51
Demod Gain : 	34dB
Selected (kHz) : 	149.24
Display Type: 	Z_DRIVE
Samples/Pixel: 	25
XY HV Gain: 	15
Z HV Gain: 	15
Z Sensor Gain: 	640
X GPID: 	100.000000000 %, 256, 4096, 0
Y GPID: 	100.000000000 %, 256, 4096, 0
Z GPID: 	1.0000, 100, 1000, 0
Setpoint: 	452





-11749.0615	-11896.1995	-12041.3570	-12187.3899	-12332.6459	-12464.0712	-12506.2091	-12515.0174	-12523.7930	-12526.0799	-12530.2269	-12537.5909	-12542.9525	-12550.0977	-12555.3280	-12561.7948	-12566.4780	-12574.6955	-12578.5580	-12584.6966	-12590.8351	-12596.2951	-12601.9413	-12608.6925	-12617.1070	-12625.4448	-12635.1614	-12643.9479	-12650.6882	-12659.1574	-12661.4224	-12671.6313	-12672.9772	-12679.4440	-12677.6823	-12678.4045	-12691.3489	-12696.3713	-12709.6441	-12718.1789	-12731.2875	-12737.1306	-12750.6002	-12758.9709	-12765.3720	-12773.1956	-12779.8156	-12787.5954	-12790.8780	-12801.9295	-12808.2212	-12814.2940	-12818.7912	-12825.3674	-12829.2847	-12827.9607	-12811.4382	-12735.2923	-12502.2918	-12208.1361	-12128.8827	-12246.3567	-12392.4006	-12537.8426	-12683.5801	-12825.6300	-12921.5920	-12937.6550	-12941.0032	-12944.7017	-12950.3259	-12956.5629	-12962.4388	-12968.7414	-12975.7443	-12983.0865	-12988.6560	-12996.0747	-12999.6637	-13004.8612	-13012.6300	-13016.9959	-13024.1849	-13030.4984	-13037.8296	-13046.8459	-13052.6452	-13059.1667	-13068.4018	-13073.8181	-13078.6217	-13084.9024	-13089.3668	-13090.3735	-13085.6137	-13084.0927	-13082.4405	-13087.8568	-13109.0188	-13123.5608	-13136.9867	-13151.3317	-13163.5978	-13169.1126	-13178.4024	-13185.6461	-13192.0144	-13199.1486	-13204.8713	-13213.0013	-13219.5884	-13225.2454	-13229.6332	-13235.2356	-13240.4002	-13241.6914	-13239.5905	-13230.1037	-13192.2660	-12931.7244	-12834.5588	-12953.2146	-13032.1726	-13173.9381	-13291.7732	-13323.0347	-13330.8912	-13338.6491
-11788.9891	-11927.4501	-12072.0495	-12217.3165	-12359.8807	-12467.6930	-12489.2489	-12495.2779	-12499.1733	-12505.2243	-12511.4722	-12518.5736	-12526.2768	-12531.9229	-12538.0833	-12546.4212	-12551.4655	-12557.5274	-12565.6464	-12572.2007	-12575.6256	-12583.5914	-12588.0339	-12594.4569	-12603.1777	-12612.9599	-12619.6565	-12626.1998	-12637.7547	-12643.7509	-12648.6530	-12650.3928	-12654.9556	-12655.8528	-12650.7429	-12649.9988	-12649.6706	-12662.8886	-12683.8974	-12696.1197	-12710.1146	-12722.7089	-12732.9288	-12743.4551	-12748.5541	-12756.6403	-12766.0286	-12773.3816	-12779.1700	-12787.1905	-12791.6002	-12800.9994	-12806.4705	-12811.6023	-12816.2199	-12816.4168	-12811.2084	-12796.5022	-12684.5430	-12458.3703	-12440.8958	-12551.5858	-12635.2052	-12777.8460	-12881.8285	-12903.3406	-12908.6913	-12914.7751	-12920.1914	-12928.8138	-12933.1249	-12941.2330	-12946.7150	-12952.2626	-12959.7908	-12967.6253	-12975.3285	-12981.7296	-12987.3757	-12994.2802	-13001.3597	-13007.8484	-13013.5492	-13022.0512	-13028.6055	-13034.5032	-13042.6223	-13050.5662	-13056.9783	-13063.5326	-13067.3623	-13072.5160	-13076.4770	-13073.6102	-13062.7010	-13020.7381	-12967.2752	-12975.1644	-12935.2258	-13047.0976	-13119.5560	-13141.6590	-13154.5706	-13160.0088	-13170.3710	-13176.2031	-13184.6722	-13189.5633	-13195.1657	-13205.2652	-13209.7077	-13217.7392	-13222.0285	-13228.8126	-13235.5419	-13237.1614	-13237.3583	-13237.0301	-13230.2131	-13224.9172	-13234.1413	-13235.6404	-13265.4357	-13285.9521	-13298.2181	-13308.9523	-13317.2792	-13324.5229
-12076.1638	-12165.0572	-12302.2707	-12412.5230	-12441.2679	-12447.5705	-12454.1686	-12461.0511	-12467.5179	-12475.0351	-12482.1037	-12486.9948	-12495.2670	-12501.7119	-12509.0431	-12516.4618	-12523.3881	-12533.3345	-12540.7641	-12545.7209	-12553.6758	-12560.3176	-12566.2373	-12573.2949	-12581.8078	-12591.0430	-12598.5383	-12605.7053	-12615.9581	-12621.1665	-12625.4667	-12627.4910	-12628.6071	-12627.8959	-12593.1767	-12539.6699	-12487.6404	-12473.4485	-12590.0363	-12666.9153	-12688.9526	-12703.3086	-12712.1607	-12725.6195	-12725.3678	-12728.0158	-12749.9218	-12758.9928	-12764.3107	-12768.1185	-12774.1914	-12782.3870	-12788.9522	-12794.3576	-12798.7891	-12801.5137	-12802.1812	-12801.9295	-12800.6383	-12788.8537	-12795.9770	-12815.4101	-12840.1173	-12855.9505	-12868.0524	-12878.9179	-12886.0412	-12894.4776	-12900.8896	-12906.9077	-12913.1885	-12919.8522	-12927.5336	-12932.2496	-12938.5741	-12947.1199	-12954.5386	-12964.5725	-12970.2623	-12976.9589	-12985.6250	-12993.4267	-12999.5433	-13007.0934	-13015.8470	-13022.7843	-13027.2158	-13036.2977	-13044.2089	-13049.7784	-13055.3588	-13058.8165	-13060.7861	-13056.2561	-13025.0165	-12868.7418	-12624.9087	-12570.2530	-12611.0013	-12753.2045	-12898.7121	-13041.6375	-13141.3745	-13157.4265	-13165.4689	-13170.1083	-13174.3539	-13180.7440	-13186.7622	-13193.9621	-13203.0221	-13208.9527	-13214.2924	-13219.6212	-13225.3768	-13230.3226	-13232.3687	-13233.3535	-13236.7784	-13239.3279	-13248.2019	-13257.4917	-13266.5846	-13282.9977	-13291.1386	-13300.2315	-13306.9390	-13313.8434
-12339.3096	-12363.7761	-12375.0574	-12399.2722	-12407.9493	-12415.1163	-12425.6098	-12432.5470	-12441.9353	-12449.7042	-12452.6586	-12462.0359	-12467.7805	-12476.9062	-12482.7383	-12490.9121	-12501.0225	-12507.4236	-12514.9190	-12524.2197	-12532.5029	-12539.5824	-12547.0668	-12552.9427	-12562.2106	-12570.0889	-12577.6170	-12586.9069	-12592.4107	-12599.1182	-12603.3418	-12606.3181	-12605.7600	-12591.4588	-12551.8703	-12274.6967	-12045.6135	-12072.6076	-12193.9770	-12339.4957	-12484.4781	-12626.1232	-12704.4466	-12716.9643	-12723.7375	-12722.9496	-12737.3603	-12747.4599	-12752.1868	-12757.8330	-12764.9562	-12772.2546	-12781.2271	-12783.8094	-12788.4598	-12793.6573	-12795.4846	-12798.5265	-12801.8748	-12810.0923	-12816.0557	-12824.6452	-12839.8876	-12851.9019	-12859.9553	-12867.7351	-12874.9131	-12882.4741	-12891.2825	-12892.7159	-12898.7778	-12906.1309	-12910.9454	-12918.3969	-12925.1482	-12932.5669	-12943.3011	-12950.9168	-12960.3160	-12968.9493	-12975.0659	-12984.3886	-12991.6103	-12996.7093	-13006.7104	-13015.2671	-13020.2020	-13027.8067	-13033.7373	-13040.1603	-13046.9006	-13049.2094	-13050.7085	-13037.3372	-12985.5812	-12796.7101	-12446.8374	-12360.4607	-12449.7480	-12594.7742	-12739.6144	-12884.8048	-13027.2049	-13134.7107	-13154.5268	-13157.4374	-13165.5564	-13171.3120	-13177.1332	-13185.2084	-13191.3469	-13198.0435	-13204.3899	-13209.7843	-13214.9708	-13220.6169	-13226.3944	-13229.8302	-13234.0648	-13239.7984	-13246.9545	-13255.7191	-13265.0527	-13274.9990	-13283.3807	-13292.8237	-13298.6230	-13303.4375
-12344.6056	-12356.7404	-12363.8199	-12375.7249	-12386.4919	-12395.2346	-12404.3165	-12410.9802	-12417.7643	-12423.5417	-12428.6079	-12433.4990	-12441.7274	-12449.3759	-12455.4597	-12464.6730	-12474.1488	-12481.5456	-12493.9430	-12501.4055	-12510.0935	-12518.5189	-12526.1455	-12532.5357	-12541.8146	-12549.8898	-12555.3718	-12562.7686	-12569.7169	-12575.5927	-12581.1076	-12583.8759	-12582.6394	-12572.8901	-12460.2524	-12113.7717	-11874.2716	-11896.8889	-12037.6258	-12182.9803	-12327.0108	-12471.9932	-12611.9751	-12682.8360	-12693.6796	-12700.4746	-12708.6483	-12716.6032	-12723.6609	-12730.2042	-12735.4674	-12742.2843	-12749.6373	-12756.2354	-12762.4943	-12766.3678	-12771.9701	-12776.5220	-12782.5949	-12788.5583	-12793.8761	-12801.1636	-12812.1603	-12822.5663	-12831.7795	-12838.1259	-12845.3586	-12852.3615	-12858.9377	-12863.6647	-12867.0239	-12873.9502	-12874.6505	-12879.3556	-12885.4503	-12895.1778	-12905.2883	-12915.4316	-12923.9446	-12936.2763	-12945.2488	-12951.7484	-12961.4759	-12967.7457	-12974.5407	-12982.7801	-12990.1113	-12994.8164	-13003.1214	-13009.2927	-13014.6762	-13020.1035	-13022.2262	-13020.1801	-12983.9399	-12801.0104	-12525.9814	-12413.3984	-12456.2585	-12600.5516	-12745.0964	-12889.8162	-13030.3890	-13108.3075	-13118.0131	-13125.6726	-13132.8396	-13137.2931	-13145.8169	-13154.0892	-13158.9474	-13167.2415	-13173.0408	-13177.3411	-13183.2388	-13189.0162	-13197.6605	-13202.1796	-13207.0816	-13213.1107	-13219.3696	-13228.4624	-13235.9906	-13242.8294	-13250.6201	-13257.5464	-13265.3372	-13272.9638
-12341.2683	-12351.2584	-12356.6528	-12369.6958	-12380.2549	-12388.9538	-12396.3616	-12402.5329	-12411.1443	-12418.1473	-12418.7381	-12424.1216	-12428.0389	-12433.3349	-12441.6071	-12450.9297	-12463.2286	-12474.0831	-12484.4125	-12494.0853	-12502.4559	-12511.5379	-12518.7268	-12527.5133	-12534.3302	-12544.9987	-12550.9840	-12556.0174	-12563.2610	-12570.2640	-12577.1028	-12580.1884	-12581.8297	-12571.1831	-12475.9761	-12236.7605	-11988.3646	-11932.2208	-12048.4037	-12193.2877	-12337.6683	-12482.2131	-12618.5732	-12674.7826	-12685.7028	-12691.0425	-12700.3543	-12708.8015	-12714.8525	-12722.5885	-12727.9392	-12734.1981	-12741.0916	-12746.9347	-12755.2616	-12761.9253	-12766.8273	-12771.4340	-12779.9907	-12787.6063	-12792.4318	-12798.0341	-12807.4005	-12817.5438	-12827.4245	-12832.1625	-12838.7386	-12846.0808	-12851.7816	-12855.7317	-12857.1979	-12860.8854	-12857.6684	-12854.6812	-12864.5619	-12876.6091	-12890.5384	-12902.8482	-12914.1076	-12928.7262	-12937.9723	-12946.2554	-12954.6042	-12959.5719	-12967.8770	-12975.8647	-12982.8786	-12989.2468	-12996.1732	-13005.2441	-13009.3693	-13014.6106	-13017.3351	-13016.2738	-13010.1134	-12920.4540	-12722.6214	-12681.0196	-12758.5661	-12832.3375	-12973.1182	-13068.0626	-13090.9206	-13098.9521	-13106.1082	-13117.0065	-13123.2435	-13129.9072	-13136.3521	-13142.8079	-13149.7561	-13157.9626	-13163.8604	-13169.2549	-13176.6189	-13183.7093	-13189.3117	-13196.9383	-13202.3656	-13208.8105	-13216.3386	-13222.8272	-13232.5110	-13239.3607	-13245.7618	-13252.5240	-13260.4133	-13268.0289
-12328.4879	-12340.0099	-12344.3868	-12355.4820	-12366.8837	-12372.0155	-12379.3357	-12386.8529	-12392.0504	-12396.8540	-12398.3202	-12397.6199	-12399.6223	-12399.6005	-12405.6186	-12424.0669	-12439.0029	-12453.5777	-12466.1501	-12474.4005	-12485.5504	-12495.1357	-12503.2219	-12513.0369	-12520.5432	-12526.8020	-12533.4658	-12540.3921	-12547.6467	-12554.4308	-12560.2191	-12564.1911	-12565.8871	-12564.4428	-12551.2138	-12411.0240	-12266.1291	-12344.7697	-12344.7260	-12426.3757	-12564.8695	-12631.3426	-12646.2457	-12657.1002	-12665.2411	-12671.9924	-12679.6190	-12689.8827	-12695.4413	-12701.1421	-12710.6507	-12716.3078	-12723.2779	-12730.1933	-12737.7433	-12745.7201	-12752.5042	-12758.3691	-12764.9562	-12774.1366	-12780.0344	-12789.0616	-12794.6640	-12803.6365	-12811.6023	-12819.9949	-12825.9583	-12831.8561	-12837.5022	-12840.2924	-12841.2006	-12836.5830	-12815.1038	-12745.6982	-12685.8669	-12802.2906	-12857.8982	-12884.9142	-12903.2531	-12916.1538	-12926.6254	-12934.7663	-12941.1783	-12949.3411	-12957.9197	-12965.0211	-12971.0939	-12976.9261	-12985.1107	-12992.2559	-12999.4886	-13002.8150	-13007.3560	-13009.5663	-13008.6362	-13003.9311	-13001.4363	-13000.2655	-13019.7314	-13038.3767	-13053.2908	-13066.9684	-13079.8581	-13089.6622	-13096.6323	-13105.1343	-13112.9251	-13120.8581	-13125.7820	-13131.6907	-13140.8164	-13145.6638	-13153.4764	-13160.1292	-13165.8628	-13176.2468	-13183.9501	-13189.8697	-13197.6277	-13206.2610	-13210.6597	-13217.3343	-13226.9196	-13233.6599	-13240.4768	-13247.4031	-13255.6535	-13260.2163
-12320.5440	-12329.9761	-12335.4690	-12346.1703	-12356.4340	-12362.2552	-12369.0283	-12375.1778	-12380.5284	-12383.8111	-12382.3995	-12364.0825	-12308.3764	-12246.1598	-12258.3274	-12374.7838	-12415.6634	-12439.4187	-12453.9607	-12465.4280	-12476.5013	-12486.5352	-12495.9782	-12503.2985	-12510.7391	-12517.3809	-12524.8544	-12529.7345	-12537.1095	-12545.4692	-12552.8114	-12556.7067	-12558.4793	-12559.9894	-12559.1030	-12557.3195	-12557.2210	-12566.1935	-12581.6437	-12598.4836	-12613.8025	-12626.8235	-12638.3784	-12650.3709	-12656.6188	-12664.1798	-12671.8830	-12677.7917	-12685.1448	-12691.2942	-12700.0369	-12705.7815	-12714.7650	-12720.3673	-12727.4906	-12736.6163	-12744.3195	-12751.1255	-12759.9667	-12766.6632	-12773.6552	-12781.9931	-12789.7619	-12797.2572	-12805.3981	-12811.9306	-12817.3578	-12822.6538	-12827.7200	-12829.7552	-12825.9802	-12788.0331	-12589.5329	-12365.9974	-12203.3106	-12266.0853	-12410.5863	-12554.8028	-12699.5008	-12840.8505	-12917.8389	-12932.7748	-12939.4714	-12945.2050	-12955.1623	-12960.8412	-12967.5378	-12974.2781	-12979.7163	-12988.3824	-12995.5166	-12999.3245	-13004.1499	-13008.2642	-13010.7590	-13011.8094	-13015.1686	-13023.3752	-13031.9537	-13044.4277	-13054.4835	-13064.7800	-13076.9147	-13085.2088	-13091.9820	-13099.2913	-13107.5744	-13113.6035	-13118.9542	-13124.7097	-13129.6446	-13137.8183	-13143.9896	-13151.5944	-13161.1577	-13168.5217	-13175.8310	-13185.4929	-13193.0976	-13199.7176	-13206.4360	-13212.6292	-13220.9890	-13229.0423	-13236.8988	-13242.3041	-13249.7885	-13254.5045
-12255.9311	-12264.4440	-12271.6220	-12280.4741	-12286.1968	-12293.8563	-12298.3535	-12300.1480	-12302.1832	-12295.7821	-12270.1448	-12180.3213	-11869.1726	-11605.9610	-11616.0606	-11765.7591	-11912.5251	-12056.8072	-12200.9581	-12344.0476	-12419.8542	-12430.1070	-12437.1646	-12441.4101	-12448.4021	-12454.8032	-12461.0293	-12467.6383	-12471.5118	-12479.4229	-12486.4477	-12491.0434	-12495.5405	-12498.0682	-12501.7338	-12507.7081	-12514.7877	-12523.7383	-12535.1727	-12545.0644	-12554.0916	-12562.1012	-12571.1393	-12577.4529	-12584.4011	-12591.2180	-12595.1462	-12601.2957	-12605.3442	-12609.1740	-12619.4157	-12626.7032	-12632.2617	-12641.9564	-12651.5088	-12661.1707	-12669.7821	-12678.4045	-12685.5715	-12691.5787	-12698.5816	-12707.0508	-12717.0737	-12721.8226	-12725.4991	-12731.7033	-12737.2728	-12740.4898	-12741.7372	-12740.7305	-12724.5691	-12627.4801	-12388.6146	-12027.7779	-11896.6262	-11991.6910	-12142.1226	-12290.0813	-12434.7902	-12579.6851	-12724.5472	-12835.3466	-12856.7602	-12862.0562	-12865.9735	-12875.2852	-12883.3604	-12887.3105	-12893.8429	-12899.5656	-12905.1351	-12912.6195	-12917.1386	-12921.3403	-12926.9536	-12931.9104	-12939.3291	-12946.1679	-12955.3155	-12963.1172	-12971.0721	-12978.5127	-12985.2202	-12993.4048	-13001.0971	-13006.0320	-13010.2994	-13015.1905	-13015.5188	-13016.5582	-13018.8123	-13027.4894	-13040.4120	-13050.5334	-13061.1034	-13070.9951	-13081.3681	-13089.8811	-13096.8183	-13105.9440	-13112.6187	-13118.9760	-13127.0841	-13133.4305	-13139.5581	-13144.0443	-13149.2746	-13156.8356
-12341.7935	-12351.8493	-12357.9331	-12366.0411	-12372.5517	-12378.5370	-12382.6403	-12383.5266	-12382.2354	-12366.0849	-12269.1163	-11920.9614	-11532.6601	-11352.9147	-11343.3623	-11429.1153	-11578.9122	-11730.1754	-11878.6265	-12024.1451	-12169.6856	-12314.1538	-12399.6223	-12416.2324	-12421.0688	-12428.6954	-12437.6132	-12442.0010	-12429.6474	-12423.6621	-12429.7896	-12436.1689	-12441.2788	-12448.9930	-12450.1419	-12457.8889	-12465.2091	-12473.0655	-12484.5000	-12493.6695	-12503.0249	-12508.8680	-12513.4527	-12520.1821	-12527.3054	-12533.0719	-12535.5995	-12541.1471	-12544.3860	-12546.3118	-12549.9774	-12557.6259	-12565.5370	-12577.9234	-12589.6533	-12598.0240	-12609.7320	-12617.8073	-12625.4339	-12632.4806	-12640.2166	-12645.1077	-12651.7824	-12660.8205	-12665.3834	-12671.3578	-12677.2665	-12681.7856	-12685.7794	-12686.6548	-12684.5758	-12654.2772	-12531.9995	-12275.7034	-12132.6467	-12211.1123	-12341.5418	-12485.5067	-12629.8764	-12747.5693	-12789.9589	-12800.5070	-12805.9124	-12812.6965	-12819.9730	-12826.0349	-12833.4646	-12841.1240	-12845.2492	-12851.1032	-12856.2788	-12864.7589	-12870.6238	-12875.0444	-12880.8984	-12887.3871	-12896.2064	-12906.7655	-12912.7946	-12919.5677	-12926.3627	-12930.4879	-12937.4799	-12945.3472	-12949.7131	-12957.9416	-12961.6619	-12962.8108	-12961.6400	-12963.5001	-12960.6552	-12961.7385	-12973.8623	-12989.0389	-13001.5020	-13013.9103	-13026.4499	-13037.8843	-13047.9401	-13053.7504	-13060.9831	-13070.2838	-13077.2320	-13080.1973	-13088.4914	-13094.1594	-13097.7703	-13103.9854
-12391.0875	-12402.2813	-12407.1833	-12416.3418	-12424.7782	-12429.5599	-12437.4929	-12440.7098	-12444.6927	-12442.3511	-12387.7502	-12204.7222	-11871.0109	-11530.2857	-11464.7208	-11604.4620	-11755.2109	-11902.7866	-12047.4299	-12193.0251	-12337.9528	-12477.2126	-12557.4727	-12569.6840	-12571.3801	-12578.1094	-12586.8193	-12591.3603	-12595.5949	-12603.9218	-12609.2943	-12615.4547	-12622.5889	-12628.0709	-12632.2180	-12639.9540	-12644.3637	-12651.5307	-12659.9780	-12667.3748	-12674.8373	-12683.5691	-12690.9222	-12696.7215	-12704.2606	-12708.9438	-12713.0361	-12716.5266	-12719.0652	-12709.4581	-12710.0489	-12720.0062	-12733.3993	-12748.0289	-12761.7612	-12776.6752	-12785.9213	-12793.7011	-12802.9143	-12809.4029	-12816.7232	-12824.5687	-12829.8974	-12837.0098	-12843.9471	-12849.8230	-12855.7645	-12860.6884	-12865.2841	-12866.3017	-12862.2422	-12816.9092	-12694.0297	-12434.1118	-12353.4796	-12446.2793	-12515.1269	-12607.1497	-12747.1863	-12884.6735	-12952.5362	-12963.3798	-12968.6210	-12976.7072	-12982.0579	-12988.6231	-12997.3768	-13003.2636	-13009.2052	-13016.2300	-13022.2262	-13029.8091	-13034.8753	-13038.3001	-13046.4410	-13053.5096	-13060.5563	-13066.7824	-13074.1464	-13083.1079	-13088.9619	-13095.9211	-13105.2437	-13110.4084	-13114.8071	-13121.9304	-13126.0993	-13127.5109	-13124.5456	-13087.2769	-13047.0538	-13052.4482	-13104.3574	-13143.2237	-13163.0069	-13178.4243	-13193.3821	-13203.6458	-13212.8700	-13220.8686	-13228.9657	-13235.1261	-13240.3455	-13245.9478	-13252.9727	-13262.4923	-13265.6983	-13271.3991
-12370.1444	-12382.5637	-12385.3977	-12393.8559	-12401.9311	-12407.6867	-12417.2063	-12421.9661	-12423.9794	-12425.8833	-12413.1686	-12320.5659	-12039.5844	-11756.6224	-11826.8815	-11845.3189	-11941.2590	-12085.9897	-12231.2567	-12373.3723	-12495.9892	-12529.8549	-12536.6718	-12544.9659	-12549.2661	-12555.3609	-12562.1887	-12569.2245	-12575.6475	-12580.7793	-12587.2461	-12597.2690	-12603.0792	-12607.3795	-12614.9186	-12622.0418	-12628.8806	-12636.6823	-12644.2105	-12652.1325	-12660.0218	-12667.9220	-12674.3449	-12680.8555	-12686.4031	-12691.4474	-12697.3890	-12696.5464	-12676.6647	-12633.6076	-12578.5362	-12627.8521	-12695.0583	-12721.3630	-12737.9731	-12757.1327	-12770.1975	-12777.2661	-12785.3413	-12795.2767	-12802.7173	-12809.5014	-12815.1913	-12820.3669	-12832.6439	-12838.1149	-12841.8571	-12846.0589	-12852.7773	-12856.3991	-12856.5742	-12853.4448	-12848.7506	-12847.1531	-12826.7680	-12852.7007	-12886.5883	-12899.7845	-12915.5082	-12927.8728	-12936.9656	-12945.7630	-12953.7289	-12959.3969	-12967.2314	-12975.1097	-12981.1278	-12987.8791	-12991.9167	-12998.6680	-13006.9949	-13016.3613	-13020.6287	-13027.1830	-13035.2364	-13042.2393	-13049.4282	-13057.0001	-13064.4517	-13071.0279	-13076.6521	-13083.9833	-13095.0676	-13099.7399	-13103.7556	-13109.7190	-13113.6582	-13109.4346	-13089.9905	-12953.4225	-12693.3513	-12650.3928	-12775.5810	-12919.8522	-13062.0882	-13161.7048	-13182.7793	-13197.7699	-13206.3923	-13215.0146	-13221.3501	-13228.2436	-13233.8678	-13239.6780	-13247.5563	-13254.1872	-13258.4109	-13264.8667
-12331.2891	-12341.7060	-12347.0347	-12353.2717	-12363.0758	-12371.2386	-12377.2677	-12383.3624	-12388.6256	-12391.9410	-12392.0067	-12387.7174	-12384.2269	-12357.1015	-12374.3243	-12399.3707	-12275.8566	-12273.4493	-12408.4526	-12469.3124	-12481.5238	-12483.7012	-12492.5862	-12507.9160	-12512.8181	-12518.7159	-12528.5965	-12534.7351	-12540.9501	-12547.7561	-12556.3128	-12563.2173	-12570.7126	-12578.1970	-12585.1671	-12592.4873	-12601.3613	-12607.2591	-12617.0851	-12625.4229	-12631.4301	-12639.6805	-12646.8256	-12654.6602	-12659.7920	-12663.8296	-12666.3572	-12661.2801	-12595.0478	-12365.7566	-12169.9045	-12177.2247	-12316.4079	-12461.3137	-12604.3266	-12719.1418	-12748.4884	-12756.5746	-12768.5671	-12774.9026	-12779.9907	-12789.6853	-12796.0974	-12801.5356	-12811.1208	-12815.3773	-12822.7632	-12829.4598	-12834.6463	-12839.4170	-12841.3210	-12841.3647	-12843.7501	-12848.8819	-12856.3991	-12864.8245	-12877.7034	-12891.8624	-12902.4981	-12912.7508	-12918.8018	-12928.4527	-12936.5608	-12941.1127	-12948.3673	-12954.3307	-12961.4321	-12968.5335	-12973.1839	-12982.8676	-12990.0237	-12997.3987	-13005.8460	-13013.4288	-13021.6354	-13030.5750	-13035.9257	-13044.7341	-13051.3322	-13060.9612	-13067.8437	-13075.0436	-13081.8277	-13086.7407	-13093.1746	-13096.8949	-13101.8408	-13092.2008	-13038.0157	-12735.4892	-12389.9714	-12332.3505	-12460.8323	-12605.7600	-12749.0136	-12892.8253	-13035.5318	-13161.0702	-13198.3389	-13208.5150	-13215.1787	-13220.3653	-13227.0509	-13232.3140	-13239.4373	-13247.6439	-13251.9879	-13258.3233
-12329.9104	-12339.4738	-12346.4220	-12353.3483	-12362.0035	-12369.9146	-12376.6112	-12384.0080	-12389.8183	-12394.2498	-12398.0029	-12400.0272	-12401.1214	-12407.3584	-12415.9479	-12424.4499	-12438.4229	-12450.5030	-12463.7429	-12472.3871	-12479.6964	-12486.3273	-12487.3121	-12504.4693	-12509.3276	-12515.2035	-12523.4975	-12530.2379	-12536.4420	-12543.8389	-12550.7652	-12560.8647	-12571.7411	-12580.0681	-12585.6595	-12596.4702	-12602.3899	-12609.0645	-12618.4966	-12624.8758	-12634.0891	-12641.6391	-12647.4603	-12655.9951	-12661.8819	-12665.8648	-12665.8320	-12647.1101	-12421.9113	-12072.2903	-11847.6495	-11910.9822	-12058.2625	-12202.6869	-12346.0718	-12490.0805	-12632.1633	-12746.4532	-12773.0753	-12780.0454	-12785.5711	-12793.7339	-12798.1326	-12803.8334	-12812.3026	-12819.5791	-12826.1662	-12831.8123	-12837.1630	-12842.4918	-12843.7939	-12843.1264	-12853.4557	-12860.6665	-12869.1029	-12875.7010	-12884.2686	-12894.0070	-12903.6689	-12913.3964	-12921.1215	-12928.3433	-12936.4076	-12942.2178	-12944.0451	-12950.1289	-12955.1951	-12958.2479	-12965.4478	-12974.1687	-12984.7825	-12992.6279	-13002.0819	-13010.2994	-13019.4470	-13029.1307	-13034.4048	-13042.0533	-13049.7237	-13058.2585	-13065.8413	-13070.6230	-13078.4028	-13084.3334	-13089.6951	-13093.9843	-13095.3740	-13089.3668	-13015.9455	-12792.2677	-12480.1013	-12370.1882	-12443.6642	-12588.8655	-12732.3051	-12876.0292	-13018.5825	-13147.7975	-13193.0101	-13201.9935	-13210.4846	-13216.6778	-13220.4309	-13226.9305	-13235.7280	-13243.4859	-13249.0226	-13253.4760
-12266.0525	-12276.7429	-12281.9185	-12291.2411	-12298.8349	-12304.3826	-12313.5520	-12320.9707	-12326.9560	-12333.1930	-12339.1565	-12342.2421	-12345.9077	-12352.2760	-12359.9245	-12370.3523	-12378.9637	-12389.9933	-12399.9506	-12408.7043	-12416.1558	-12423.3666	-12432.0875	-12440.4910	-12444.5067	-12447.3079	-12452.4507	-12456.3132	-12468.2620	-12472.7701	-12482.8477	-12494.0415	-12503.3970	-12512.2491	-12520.9480	-12530.3145	-12540.3702	-12546.3008	-12554.1353	-12561.1054	-12568.2397	-12573.7764	-12583.5258	-12590.6162	-12595.5511	-12600.9127	-12601.6458	-12600.0155	-12509.9622	-12229.7686	-11997.4355	-11948.1525	-12072.4216	-12216.5943	-12360.0886	-12504.0425	-12639.3522	-12695.2552	-12704.1730	-12712.4343	-12718.7916	-12725.7289	-12731.1671	-12738.7609	-12745.7857	-12753.8829	-12760.4481	-12768.1294	-12772.7361	-12778.7651	-12782.9231	-12786.0416	-12793.5041	-12801.5794	-12809.1950	-12815.7931	-12825.5097	-12833.5959	-12841.5289	-12848.4661	-12858.7955	-12865.2841	-12869.0591	-12876.0839	-12881.0954	-12882.0583	-12883.5355	-12886.3038	-12889.7615	-12895.9876	-12909.1946	-12921.8546	-12935.1164	-12947.4153	-12954.7793	-12963.7737	-12972.2429	-12979.2020	-12984.3667	-12996.3373	-13000.7688	-13006.0867	-13013.5601	-13020.9241	-13027.7958	-13031.1550	-13034.9847	-13036.1993	-13030.4219	-12908.4396	-12677.5838	-12588.0995	-12695.4522	-12796.4038	-12939.6027	-13066.5088	-13108.5264	-13117.8818	-13126.2853	-13132.6208	-13143.8036	-13151.9117	-13157.6782	-13161.5079	-13169.6488	-13179.5732	-13183.0200	-13189.6290
-12255.0448	-12267.1686	-12273.0992	-12279.5222	-12286.6455	-12295.8368	-12303.1461	-12310.6305	-12317.3598	-12324.0455	-12332.4709	-12337.7230	-12342.1984	-12350.1532	-12358.9944	-12366.7414	-12374.5759	-12382.7497	-12392.4334	-12401.8217	-12407.7304	-12414.0002	-12422.1958	-12426.0146	-12429.6583	-12431.2778	-12432.5799	-12436.2017	-12445.2070	-12453.1728	-12465.0122	-12478.5366	-12491.7874	-12503.1781	-12512.0412	-12521.6264	-12531.4087	-12538.9477	-12546.1476	-12552.4065	-12559.1468	-12566.1935	-12573.9514	-12582.3221	-12588.1542	-12592.9250	-12594.0520	-12593.9098	-12568.5132	-12358.2723	-12140.0217	-12197.0518	-12307.5120	-12427.8529	-12569.0932	-12654.3757	-12675.7236	-12683.0111	-12692.0273	-12699.0740	-12705.6064	-12716.1437	-12722.7527	-12727.4249	-12735.4127	-12743.9037	-12750.2939	-12755.6774	-12761.9253	-12769.3550	-12775.7123	-12781.9602	-12788.4598	-12795.4190	-12804.7526	-12812.4558	-12817.2812	-12826.4179	-12835.4013	-12841.6602	-12848.5756	-12855.2393	-12862.0562	-12866.2470	-12867.8117	-12867.8993	-12863.6209	-12850.2825	-12843.3562	-12865.6999	-12891.7092	-12908.0895	-12924.4369	-12938.6835	-12947.9077	-12956.9130	-12964.2880	-12971.3237	-12978.7753	-12988.4699	-12994.5319	-13001.0424	-13006.6228	-13014.6106	-13021.5478	-13025.7168	-13029.4261	-13033.7482	-13033.1574	-13028.1568	-13009.3365	-13010.1790	-13020.6396	-13044.8763	-13071.0607	-13085.2526	-13098.5034	-13107.7714	-13118.4180	-13125.8805	-13133.2336	-13142.6547	-13149.7670	-13155.1615	-13161.1687	-13166.6069	-13172.9314	-13180.8863
-12244.9124	-12256.8502	-12261.4021	-12268.5144	-12277.5526	-12284.1507	-12292.1055	-12299.0647	-12306.0129	-12314.1538	-12320.9817	-12327.1530	-12335.7754	-12343.7631	-12351.8274	-12360.8546	-12366.9274	-12373.3942	-12382.6074	-12392.2912	-12397.3136	-12403.4302	-12409.7985	-12414.8428	-12414.9631	-12412.3699	-12400.0381	-12356.5325	-12396.1099	-12423.5198	-12443.7627	-12462.6596	-12477.5846	-12491.9187	-12500.3004	-12509.7324	-12520.3462	-12527.6555	-12533.2579	-12542.6899	-12548.5549	-12554.1025	-12563.3376	-12570.4828	-12580.2978	-12583.9963	-12585.0029	-12586.3050	-12585.0795	-12578.8207	-12569.3558	-12572.9557	-12592.9578	-12618.4638	-12636.8246	-12645.2828	-12661.0175	-12672.8131	-12680.1552	-12687.8584	-12696.4370	-12703.1007	-12710.7930	-12713.7583	-12722.3040	-12730.9483	-12737.0977	-12743.3019	-12750.6221	-12758.1284	-12768.1513	-12773.5020	-12779.7171	-12790.0902	-12796.0755	-12802.2797	-12810.7707	-12818.0253	-12827.0197	-12832.8956	-12840.2268	-12846.9999	-12849.7573	-12853.0071	-12855.1408	-12846.9014	-12672.7365	-12542.1975	-12597.1267	-12738.8047	-12851.6831	-12892.7159	-12913.1666	-12927.5007	-12938.7054	-12950.0742	-12958.0510	-12964.2442	-12973.6434	-12980.8105	-12986.7630	-12993.5142	-13000.0357	-13008.7675	-13015.3765	-13020.0816	-13023.6487	-13028.1678	-13032.1945	-13033.8905	-13035.4661	-13038.4862	-13046.8568	-13058.8603	-13072.1440	-13083.6550	-13096.2056	-13104.0292	-13113.4284	-13120.7705	-13127.8063	-13137.4791	-13138.5076	-13147.8303	-13153.6734	-13157.4046	-13166.6616	-13173.2487
-12237.6250	-12248.4248	-12254.2132	-12261.2708	-12269.0615	-12276.9508	-12286.9081	-12292.2478	-12301.3297	-12308.1576	-12314.7009	-12322.4041	-12331.8472	-12340.8087	-12347.2426	-12357.3531	-12364.6515	-12368.9845	-12378.9090	-12385.5618	-12393.0352	-12398.7798	-12402.7080	-12406.5596	-12407.3803	-12339.7254	-12162.0809	-12026.8369	-12074.0301	-12218.0605	-12361.5768	-12454.3874	-12479.6745	-12492.9473	-12503.5720	-12512.5445	-12519.3614	-12527.8087	-12534.7460	-12541.6833	-12551.1591	-12557.8775	-12562.2215	-12572.1351	-12579.2693	-12584.5652	-12587.8807	-12590.6928	-12593.8332	-12594.4569	-12597.5316	-12605.2567	-12616.1550	-12628.9353	-12638.4440	-12650.6882	-12663.0308	-12672.1784	-12679.6300	-12686.7314	-12693.7890	-12702.3676	-12706.1207	-12710.3662	-12718.6166	-12725.4991	-12731.9221	-12739.3846	-12748.6744	-12757.2202	-12766.2036	-12773.4911	-12781.6648	-12788.4926	-12795.3096	-12801.9404	-12809.0309	-12817.1718	-12825.9255	-12831.3090	-12837.6773	-12845.1069	-12849.2321	-12851.9676	-12850.0199	-12800.9885	-12533.7831	-12221.1243	-12209.5695	-12330.4575	-12474.1597	-12617.2273	-12760.7983	-12892.1578	-12938.5084	-12951.7812	-12956.7708	-12963.6862	-12970.2842	-12979.3552	-12985.3952	-12991.5666	-12998.0880	-13005.1457	-13012.0829	-13016.9631	-13023.2986	-13027.8286	-13032.1398	-13037.2278	-13040.2807	-13046.2331	-13057.0986	-13064.7800	-13072.1549	-13082.8891	-13093.0433	-13101.7204	-13108.0777	-13113.5159	-13122.6307	-13126.8981	-13131.0233	-13138.0043	-13140.2912	-13145.9264	-13154.9755	-13159.7024
-12316.1015	-12324.8333	-12327.9627	-12335.0422	-12342.8986	-12348.5995	-12360.0230	-12368.7110	-12378.0008	-12388.8225	-12395.9349	-12408.1353	-12413.0920	-12416.7686	-12427.7544	-12436.9895	-12443.9706	-12449.6057	-12458.6767	-12466.0517	-12470.1549	-12474.0503	-12476.7530	-12472.5403	-12441.9353	-12226.5735	-11871.5251	-11736.4124	-11845.8879	-11990.6515	-12134.1349	-12278.0012	-12420.6202	-12547.5373	-12584.5652	-12590.9882	-12597.9474	-12604.0312	-12610.2025	-12615.4547	-12622.5780	-12629.8764	-12635.6319	-12642.7880	-12651.0274	-12655.4918	-12659.6607	-12663.6217	-12669.5851	-12675.8002	-12681.7308	-12690.9660	-12701.0983	-12710.8368	-12717.6208	-12724.1095	-12730.5872	-12739.7238	-12748.3571	-12751.7273	-12757.6907	-12760.9186	-12762.5928	-12767.2541	-12769.8145	-12781.6210	-12792.1254	-12801.0870	-12811.4601	-12821.6362	-12831.4293	-12841.2006	-12848.5974	-12856.9025	-12862.7346	-12869.4968	-12875.1867	-12882.0255	-12889.5099	-12896.8739	-12902.6294	-12906.5795	-12913.5277	-12912.0068	-12886.8509	-12778.8746	-12524.0228	-12294.3049	-12216.7366	-12307.6105	-12451.7504	-12594.5335	-12738.1263	-12878.6881	-12992.1137	-13019.0640	-13023.8785	-13028.3538	-13034.6455	-13041.4733	-13047.4368	-13053.7613	-13057.3831	-13065.8085	-13071.8814	-13078.2934	-13084.9353	-13088.6446	-13095.2646	-13102.4973	-13109.6862	-13116.2077	-13125.6726	-13132.4348	-13140.7726	-13148.1257	-13155.7195	-13163.1273	-13167.9856	-13173.2925	-13174.1350	-13176.4657	-13179.1574	-13176.6517	-13177.2097	-13185.9306	-13198.4483	-13214.3143
-12306.6476	-12312.3374	-12316.6158	-12318.7167	-12328.8271	-12337.4933	-12349.6608	-12361.9050	-12371.9170	-12383.1983	-12392.8383	-12402.0734	-12407.5882	-12415.4118	-12425.0955	-12431.4200	-12438.3026	-12446.5967	-12453.5996	-12460.4274	-12469.1154	-12471.6212	-12474.3020	-12471.1397	-12438.1275	-12260.3517	-11942.6048	-11795.3245	-11797.6661	-11934.7812	-12077.8598	-12221.2119	-12364.2466	-12501.7228	-12574.4438	-12589.4345	-12593.7238	-12597.6848	-12603.9655	-12609.6554	-12622.1294	-12626.3968	-12631.4958	-12638.4221	-12646.0159	-12652.4827	-12656.9689	-12663.4685	-12669.7712	-12678.0324	-12685.5606	-12690.7033	-12698.9318	-12707.0617	-12714.8087	-12721.0457	-12728.8693	-12735.9926	-12743.3238	-12748.4556	-12748.5541	-12752.3400	-12748.3462	-12746.0593	-12750.9613	-12766.7070	-12779.3341	-12792.1035	-12803.6584	-12816.9420	-12826.6695	-12836.2876	-12844.4723	-12849.9761	-12858.3249	-12864.5510	-12870.9630	-12878.2286	-12883.9841	-12891.2496	-12899.0513	-12902.4871	-12907.2469	-12910.3545	-12902.4981	-12852.7335	-12659.4747	-12478.9524	-12465.0888	-12518.7268	-12615.0717	-12757.9424	-12897.5194	-12986.9271	-13004.2594	-13009.9711	-13015.6063	-13021.2633	-13024.5678	-13033.4419	-13041.8126	-13046.3207	-13053.1923	-13060.6876	-13067.6030	-13071.9689	-13077.6150	-13086.2374	-13092.5291	-13098.7770	-13107.8261	-13113.8333	-13122.2915	-13128.7035	-13134.7107	-13142.5343	-13147.8084	-13156.3432	-13160.9170	-13165.2391	-13170.4038	-13168.3576	-13158.8708	-13136.8882	-13109.8175	-13123.3529	-13170.4913	-13200.4398
-12289.9171	-12292.2478	-12293.4842	-12291.4600	-12306.6147	-12313.0487	-12332.6131	-12347.7679	-12357.7580	-12369.7505	-12378.7230	-12388.5271	-12397.0510	-12402.5220	-12412.3917	-12420.2810	-12426.7915	-12432.3610	-12441.5524	-12450.2841	-12454.6391	-12458.7971	-12463.8304	-12461.8499	-12445.9839	-12332.1864	-12127.5149	-12016.0480	-12059.3677	-12140.3500	-12271.5782	-12413.1686	-12526.6160	-12555.6563	-12561.0836	-12565.1759	-12576.9386	-12583.3616	-12587.7603	-12594.8617	-12603.0573	-12610.2353	-12616.4614	-12623.8035	-12631.7475	-12637.7984	-12644.8779	-12651.3775	-12657.5598	-12666.8387	-12673.1304	-12679.2361	-12688.0225	-12697.3233	-12703.8885	-12710.0927	-12717.6865	-12723.9344	-12729.5915	-12732.3051	-12732.2066	-12729.7447	-12718.3321	-12694.3471	-12648.7952	-12686.3156	-12749.9984	-12774.1804	-12793.1868	-12807.9695	-12817.7955	-12825.3784	-12831.7029	-12838.6402	-12847.7111	-12855.2612	-12862.6471	-12867.0567	-12875.3180	-12881.6972	-12887.1464	-12895.5499	-12899.4124	-12902.8264	-12902.7607	-12898.4714	-12893.3067	-12861.8811	-12867.5272	-12905.5728	-12911.2189	-12948.9362	-12969.7043	-12978.9613	-12987.7040	-12994.2583	-13000.3093	-13008.0672	-13015.2999	-13020.7709	-13028.1131	-13036.8120	-13038.6612	-13048.7936	-13056.3983	-13062.7557	-13069.7805	-13077.8557	-13086.4453	-13094.2907	-13100.6700	-13106.6443	-13113.0783	-13121.4490	-13127.2811	-13137.0633	-13143.7270	-13150.8394	-13156.4089	-13160.3261	-13161.8033	-13156.7809	-13135.0281	-13052.6124	-12850.1731	-12743.2253	-12858.1170	-13001.1628
-12266.4573	-12257.7803	-12240.0651	-12193.4190	-12207.8407	-12253.2612	-12298.8459	-12324.1330	-12338.5437	-12350.7988	-12358.3160	-12369.2909	-12376.7096	-12383.8767	-12394.7312	-12400.8588	-12406.5049	-12412.4136	-12422.2506	-12428.8158	-12436.4752	-12440.1955	-12445.2398	-12449.9996	-12447.9207	-12440.8958	-12435.6108	-12406.7785	-12411.1443	-12457.1558	-12467.2553	-12507.2157	-12522.9176	-12532.0871	-12539.3526	-12545.9397	-12554.1244	-12564.5194	-12568.7977	-12575.5709	-12583.9963	-12590.3536	-12598.4398	-12605.3771	-12612.0080	-12622.3373	-12629.1870	-12635.6975	-12644.2980	-12654.3757	-12660.1203	-12666.8277	-12674.8483	-12682.6172	-12691.5349	-12696.2181	-12703.3414	-12710.4319	-12713.8458	-12717.4129	-12715.0166	-12706.6788	-12651.2900	-12385.0913	-12368.4703	-12434.3525	-12574.6736	-12710.9243	-12779.0059	-12798.4390	-12808.7902	-12815.0162	-12821.7128	-12829.0111	-12836.9770	-12846.8139	-12852.9852	-12857.7888	-12865.7108	-12873.2280	-12879.4760	-12885.0674	-12890.7354	-12899.4453	-12902.7935	-12903.6908	-12904.0628	-12906.1965	-12911.5472	-12923.9774	-12941.2002	-12954.1447	-12964.2223	-12970.8860	-12976.5650	-12987.1241	-12992.2887	-13000.2217	-13006.7651	-13011.1419	-13015.4859	-13022.5107	-13031.5817	-13036.6041	-13047.9729	-13056.9345	-13064.1891	-13073.7634	-13080.9742	-13089.0823	-13095.7570	-13102.1909	-13110.7695	-13116.8533	-13123.8671	-13131.0123	-13137.6104	-13144.7227	-13149.6029	-13155.3037	-13153.1591	-13140.6085	-13101.9392	-12858.2374	-12513.3214	-12457.6700	-12584.5324	-12727.8517
-12275.5721	-12244.7483	-12136.6187	-11918.8715	-11907.6449	-12028.5329	-12171.2066	-12301.9753	-12353.2280	-12365.9974	-12377.2458	-12383.5047	-12391.1970	-12401.2418	-12406.4064	-12412.7638	-12421.2001	-12427.4590	-12433.6084	-12439.6484	-12446.5857	-12453.8731	-12458.7642	-12463.6772	-12469.2905	-12469.5203	-12468.6449	-12474.9038	-12481.4034	-12495.5187	-12510.6078	-12521.5936	-12534.5600	-12540.5234	-12547.1652	-12556.1815	-12563.6112	-12569.8919	-12574.7064	-12579.3349	-12588.3621	-12594.8617	-12603.1449	-12610.7715	-12618.9452	-12628.5414	-12636.7261	-12643.8056	-12649.8019	-12659.5294	-12667.2545	-12672.6489	-12680.8117	-12687.4207	-12693.3404	-12702.1597	-12708.5499	-12714.4805	-12719.4701	-12722.0305	-12716.7783	-12692.8480	-12597.3894	-12248.4795	-12041.5868	-12098.3652	-12240.6559	-12383.3953	-12526.9443	-12669.4429	-12790.6701	-12823.1900	-12829.9959	-12833.1363	-12839.3733	-12846.0151	-12852.6898	-12858.9815	-12863.4896	-12872.2651	-12879.7605	-12886.5664	-12891.0308	-12896.7207	-12899.8829	-12901.8306	-12907.4220	-12918.6376	-12923.9664	-12934.1754	-12946.4305	-12950.3587	-12961.9573	-12969.7043	-12976.3790	-12984.8810	-12987.9338	-12993.7331	-12998.5148	-12999.8935	-13003.3402	-13010.1462	-13017.5868	-13028.1131	-13041.2326	-13050.6756	-13056.9345	-13067.9532	-13076.9257	-13084.2350	-13090.3954	-13097.2998	-13106.0097	-13114.2053	-13121.1207	-13125.1911	-13132.0299	-13139.1532	-13143.1908	-13145.3136	-13145.0510	-13129.8743	-13047.3821	-12768.0638	-12538.9259	-12489.1504	-12575.9320	-12719.2074
-12247.2868	-12188.4075	-12033.2599	-11691.4186	-11577.4788	-11627.2543	-11770.5955	-11913.3567	-12056.2930	-12199.7982	-12320.0297	-12350.5253	-12359.1695	-12367.1682	-12373.6349	-12378.4494	-12385.0475	-12392.5866	-12398.9221	-12406.5706	-12413.8252	-12419.5150	-12424.9314	-12430.1070	-12435.3373	-12439.8892	-12444.9335	-12451.4549	-12459.6287	-12469.4218	-12473.6345	-12483.0338	-12494.4354	-12502.5763	-12509.4807	-12513.6387	-12521.5280	-12528.1698	-12531.5400	-12533.8378	-12535.7198	-12537.7332	-12548.1172	-12555.9298	-12567.4518	-12581.5452	-12588.0339	-12600.0264	-12608.2439	-12616.6474	-12626.1561	-12631.6271	-12638.6738	-12645.8080	-12652.8438	-12660.7330	-12664.6393	-12672.5614	-12679.6300	-12682.1904	-12683.2299	-12678.6999	-12539.2870	-12253.1627	-12113.6841	-12104.9961	-12232.5697	-12368.2843	-12511.2862	-12653.2924	-12753.9923	-12772.5391	-12781.0849	-12787.8471	-12794.4451	-12799.9818	-12809.5671	-12816.8764	-12821.6034	-12828.4421	-12837.1958	-12844.1440	-12848.1598	-12855.3925	-12860.2945	-12866.0829	-12871.6633	-12878.4693	-12887.2996	-12892.1031	-12899.6969	-12908.3083	-12915.2675	-12923.0035	-12929.1420	-12937.1407	-12941.7582	-12945.1175	-12949.2426	-12949.7897	-12946.3101	-12948.7831	-12953.1599	-12962.0886	-12978.7315	-12992.9562	-13005.1894	-13017.2914	-13026.2529	-13035.2801	-13041.9986	-13050.1614	-13058.8165	-13066.1368	-13071.3780	-13078.3262	-13083.4909	-13088.5352	-13096.8731	-13100.7247	-13101.7313	-13103.8979	-13097.0372	-12942.8306	-12736.0145	-12709.4471	-12781.2271	-12912.5976
-12246.2802	-12213.2898	-12045.9965	-11739.9577	-11633.3928	-11680.9580	-11824.1241	-11967.2354	-12110.7954	-12251.7621	-12331.3110	-12343.4786	-12353.4359	-12358.9288	-12365.6472	-12373.6349	-12381.3710	-12387.9362	-12394.1294	-12401.7451	-12408.5183	-12415.1820	-12419.1211	-12426.4414	-12434.3963	-12440.3378	-12443.9159	-12452.3194	-12460.7338	-12467.2881	-12473.8534	-12483.7341	-12490.7479	-12498.7028	-12505.1149	-12508.8789	-12518.4970	-12523.6288	-12521.9109	-12520.8277	-12517.4903	-12513.1682	-12523.3006	-12544.1890	-12556.5645	-12574.2578	-12583.7665	-12594.3584	-12602.5102	-12613.2554	-12620.3677	-12627.0533	-12635.2052	-12639.9321	-12646.9679	-12654.5289	-12660.7330	-12667.3748	-12674.7389	-12679.3236	-12680.2099	-12678.7327	-12649.4955	-12475.5275	-12281.3823	-12328.4989	-12378.4494	-12511.4613	-12653.1173	-12739.4722	-12757.7564	-12767.9981	-12774.8698	-12781.5444	-12789.0288	-12795.6269	-12803.1660	-12808.2650	-12815.4758	-12819.8417	-12828.6719	-12836.9332	-12842.6450	-12849.8230	-12857.0557	-12863.5224	-12870.8208	-12877.0797	-12883.3823	-12891.3044	-12896.8957	-12903.2531	-12912.6086	-12920.5525	-12925.4436	-12931.1007	-12937.0422	-12940.9157	-12940.7735	-12937.5784	-12930.2034	-12899.2483	-12882.6929	-12925.9688	-12957.9087	-12982.9442	-12998.6461	-13011.0434	-13019.9612	-13028.6930	-13038.0704	-13044.1979	-13050.7522	-13060.9831	-13066.2571	-13073.0522	-13077.2758	-13086.0842	-13092.1133	-13096.1181	-13099.2037	-13101.6985	-13101.5891	-13100.0572	-13054.3740	-13062.4931	-13107.6291	-13126.2853
-12229.8342	-12226.4422	-12147.3310	-11850.6258	-11847.6058	-11904.7124	-12008.7934	-12152.0689	-12273.4603	-12304.6342	-12315.0511	-12324.6254	-12332.7772	-12341.8263	-12348.1508	-12353.8735	-12364.4436	-12369.2909	-12373.6240	-12382.1916	-12389.7198	-12396.3178	-12402.5876	-12408.4417	-12419.7776	-12425.5879	-12431.0042	-12439.8673	-12447.4064	-12456.3242	-12462.3204	-12470.5489	-12478.3834	-12483.8435	-12488.6470	-12492.6409	-12501.5806	-12505.1586	-12501.7885	-12495.4421	-12467.9446	-12439.7360	-12453.9716	-12499.2061	-12533.8597	-12553.9165	-12567.0142	-12580.6699	-12590.5615	-12600.0592	-12608.2658	-12614.0213	-12619.7002	-12627.2503	-12634.1438	-12642.2409	-12649.9879	-12657.0784	-12662.6807	-12668.6004	-12671.5438	-12672.4848	-12671.3687	-12671.5985	-12647.7448	-12663.3153	-12691.3599	-12706.4052	-12721.2098	-12734.1871	-12744.5165	-12753.4342	-12761.7721	-12767.5823	-12775.4935	-12784.3347	-12788.4598	-12795.0360	-12801.9404	-12806.7550	-12816.5919	-12824.6562	-12830.5211	-12838.4870	-12846.9342	-12854.3311	-12862.7018	-12868.8293	-12875.6353	-12883.1963	-12889.6959	-12896.3268	-12903.8658	-12911.9849	-12916.7775	-12921.5592	-12927.5773	-12932.7092	-12932.2824	-12917.8170	-12819.3493	-12624.1208	-12582.5519	-12720.6846	-12863.2051	-12962.3293	-12989.0061	-13003.8545	-13014.7637	-13023.1454	-13031.2972	-13037.8406	-13045.8283	-13053.4768	-13060.1624	-13067.3623	-13075.4266	-13079.9785	-13086.4890	-13093.1746	-13096.5339	-13100.1010	-13102.5739	-13106.1738	-13108.0340	-13114.9822	-13124.0094	-13135.9144
-12201.1769	-12202.6541	-12203.8906	-12197.7302	-12205.8492	-12218.4107	-12237.5484	-12250.2193	-12262.9121	-12275.0797	-12285.1902	-12294.5675	-12304.0105	-12312.8627	-12318.8480	-12326.3761	-12334.8453	-12338.1717	-12345.3059	-12354.8036	-12362.0582	-12369.1924	-12376.0969	-12383.1874	-12394.3811	-12403.4521	-12411.1662	-12416.6263	-12424.2092	-12433.5318	-12440.2831	-12446.4763	-12454.4202	-12461.6201	-12467.8899	-12472.5731	-12477.1907	-12478.6132	-12474.8710	-12425.6207	-12186.1097	-12110.6641	-12167.4644	-12310.0724	-12450.1419	-12528.5528	-12552.9208	-12562.9218	-12575.6584	-12583.7336	-12592.9797	-12600.0155	-12605.9351	-12613.0912	-12619.9081	-12628.8150	-12634.7018	-12642.5692	-12649.9551	-12655.5246	-12658.7306	-12662.5166	-12665.7335	-12669.8040	-12673.8416	-12680.0129	-12691.5897	-12701.8643	-12713.8239	-12721.0129	-12730.0182	-12741.8356	-12748.7073	-12755.5351	-12762.7459	-12768.3373	-12773.8193	-12780.0891	-12786.4793	-12790.3200	-12798.4937	-12809.5452	-12815.9901	-12825.8817	-12835.4670	-12844.0455	-12849.3743	-12857.2636	-12865.8969	-12872.8998	-12880.1544	-12887.3980	-12893.3833	-12901.8416	-12905.4306	-12910.4639	-12916.7884	-12919.5021	-12917.6310	-12786.2714	-12418.3552	-12258.3383	-12243.1069	-12370.1335	-12513.8029	-12656.7829	-12800.3320	-12939.1103	-13009.2818	-13020.1254	-13026.5921	-13033.0808	-13041.3202	-13046.6599	-13054.4178	-13059.9326	-13067.2966	-13073.7634	-13081.7621	-13086.8939	-13092.1351	-13097.3873	-13102.3003	-13108.0668	-13111.8090	-13118.8994	-13129.0975	-13137.2055
-12258.7651	-12261.9930	-12265.0458	-12270.1448	-12274.6420	-12284.8181	-12298.4301	-12309.9630	-12323.2139	-12332.7772	-12341.1589	-12352.8340	-12361.9707	-12368.1420	-12374.4446	-12382.0931	-12386.0979	-12391.4596	-12396.8102	-12407.3474	-12415.5540	-12423.3119	-12432.6236	-12441.1475	-12450.6452	-12459.3879	-12467.1349	-12473.4047	-12481.8082	-12489.6428	-12496.0329	-12502.9155	-12510.2139	-12518.3110	-12524.5808	-12527.7540	-12528.6403	-12524.1431	-12429.6474	-12100.2144	-11816.9351	-11758.1324	-11853.0877	-11998.4422	-12141.5864	-12284.7087	-12428.3562	-12565.7230	-12631.7803	-12641.9783	-12651.2462	-12657.1112	-12662.3853	-12668.3159	-12674.1152	-12684.8165	-12689.3246	-12695.8461	-12704.5998	-12709.2830	-12712.7188	-12717.9929	-12721.8445	-12726.3417	-12732.1957	-12738.6734	-12748.3790	-12758.5880	-12766.7836	-12776.7299	-12783.8313	-12792.3224	-12799.6864	-12806.9519	-12813.1670	-12817.8065	-12819.6447	-12823.8465	-12829.4598	-12836.2767	-12847.3063	-12856.3116	-12867.2318	-12875.2523	-12884.5640	-12893.8101	-12897.7055	-12907.1704	-12913.6918	-12921.8218	-12929.1967	-12935.8276	-12943.6184	-12950.3478	-12954.5167	-12958.8716	-12961.6947	-12960.7537	-12938.6726	-12821.4283	-12515.7396	-12227.5473	-12232.3290	-12356.6638	-12500.9022	-12644.2980	-12787.8689	-12927.8399	-13012.2471	-13027.5550	-13035.7288	-13043.9353	-13050.2270	-13055.4683	-13063.4669	-13069.7367	-13074.7482	-13082.6484	-13089.4981	-13096.2931	-13101.2389	-13106.0316	-13110.5397	-13118.3742	-13124.1079	-13132.4020	-13140.7726	-13148.7494
-12225.9935	-12231.4755	-12235.5460	-12246.1707	-12253.6442	-12261.0410	-12272.2019	-12282.5641	-12292.5432	-12299.6009	-12307.9497	-12316.9003	-12324.3956	-12329.8776	-12334.8125	-12338.5328	-12342.8549	-12348.7964	-12356.1495	-12365.5706	-12375.6373	-12385.3429	-12398.0905	-12405.9140	-12414.1644	-12422.4037	-12432.2735	-12439.9767	-12445.0648	-12454.5297	-12461.4232	-12466.6754	-12475.0351	-12482.0161	-12487.2355	-12491.2184	-12490.6494	-12485.7146	-12454.4968	-12251.4229	-11877.5323	-11739.5200	-11779.2725	-11851.2932	-11992.9602	-12136.4765	-12280.4851	-12423.6074	-12530.6537	-12573.6341	-12601.6239	-12614.9186	-12624.3834	-12631.2551	-12639.1224	-12647.4712	-12653.7739	-12659.3653	-12666.8168	-12672.0252	-12676.3911	-12680.1333	-12684.4226	-12689.4450	-12693.0231	-12700.7701	-12709.3705	-12718.4196	-12729.5368	-12738.1701	-12745.2277	-12755.5023	-12763.9058	-12771.0400	-12775.9749	-12781.7633	-12787.3984	-12790.7248	-12796.9290	-12801.6231	-12811.1099	-12819.0538	-12829.6239	-12837.4694	-12848.6412	-12856.5304	-12861.2793	-12870.3722	-12876.9921	-12885.6364	-12891.9062	-12898.9638	-12905.8026	-12913.2651	-12917.3793	-12922.8722	-12928.5402	-12931.1663	-12929.7001	-12904.5771	-12834.1758	-12577.0918	-12328.1378	-12428.3562	-12570.5485	-12713.9005	-12856.1037	-12985.8110	-13035.9476	-13048.6076	-13056.0701	-13064.6268	-13072.5488	-13078.1949	-13086.3030	-13094.6080	-13099.2913	-13107.6838	-13115.6934	-13122.8933	-13127.0294	-13132.4348	-13140.0505	-13144.8650	-13152.3603	-13159.4289	-13169.5831	-13177.7350
-12253.0095	-12261.5443	-12266.3151	-12274.2590	-12282.3015	-12288.6588	-12298.3535	-12307.3916	-12316.1343	-12324.8989	-12331.1359	-12340.0537	-12346.5752	-12351.7070	-12356.2370	-12357.6814	-12357.1562	-12350.1095	-12362.2661	-12372.8033	-12387.4438	-12403.5943	-12414.3723	-12423.5745	-12435.3482	-12445.1851	-12451.9911	-12460.8870	-12469.2577	-12477.6612	-12484.1499	-12490.4306	-12497.5211	-12506.3623	-12511.5707	-12517.1183	-12519.7663	-12517.6764	-12501.4493	-12432.3391	-12235.6226	-11871.6783	-11843.9402	-11987.6862	-12131.3775	-12274.9703	-12418.1582	-12541.3222	-12608.9332	-12629.4387	-12637.1638	-12645.5564	-12651.2462	-12657.8771	-12664.9348	-12673.0210	-12678.8859	-12685.7904	-12693.1981	-12698.9646	-12706.3724	-12712.0951	-12719.4263	-12725.1052	-12731.4626	-12738.1044	-12747.3176	-12753.3029	-12762.6256	-12768.3373	-12777.0582	-12784.1049	-12790.0792	-12795.1126	-12795.6378	-12792.8914	-12787.5297	-12746.4204	-12732.4145	-12768.9939	-12808.4072	-12830.0069	-12844.6145	-12858.1389	-12869.3327	-12881.0516	-12889.4770	-12897.8477	-12905.2336	-12911.8973	-12918.8455	-12926.3627	-12931.8666	-12937.9285	-12945.4238	-12950.9058	-12956.0595	-12957.7446	-12954.7137	-12938.7820	-12856.4976	-12584.7075	-12367.0697	-12358.5786	-12481.9067	-12624.5476	-12768.9720	-12909.6104	-13026.7344	-13055.1181	-13063.1277	-13069.0911	-13074.2120	-13080.6241	-13088.5352	-13094.0719	-13098.0767	-13104.5872	-13113.1439	-13119.0745	-13124.7863	-13133.3320	-13131.9205	-13139.4158	-13154.8551	-13161.9237	-13169.0688	-13177.6474
-12245.6017	-12252.2983	-12256.6642	-12258.1742	-12266.0853	-12282.6735	-12290.7159	-12298.2878	-12309.8864	-12317.3051	-12321.5069	-12329.8119	-12336.2459	-12340.7321	-12340.7759	-12333.9918	-12320.2267	-12255.6247	-12288.5165	-12338.4343	-12363.2947	-12387.6408	-12400.1695	-12414.6677	-12424.8985	-12434.3963	-12444.5943	-12450.5467	-12461.1934	-12467.7805	-12475.3962	-12482.7383	-12487.7060	-12496.0548	-12503.1672	-12508.3975	-12512.7634	-12514.2515	-12510.6625	-12478.0879	-12406.9098	-12186.9304	-12133.3033	-12265.7133	-12408.1353	-12537.8973	-12585.4406	-12599.5121	-12607.9813	-12614.3277	-12623.6066	-12630.7627	-12634.7018	-12642.6458	-12650.2943	-12656.6407	-12663.4904	-12672.1456	-12678.1856	-12685.9107	-12693.1434	-12699.1835	-12707.7839	-12714.6884	-12721.5381	-12728.6067	-12736.6163	-12743.4441	-12750.9504	-12759.0913	-12765.0657	-12771.5653	-12777.2551	-12781.0849	-12778.5463	-12769.5738	-12711.2416	-12478.3724	-12307.2056	-12314.7338	-12455.6239	-12599.5887	-12741.8575	-12840.0955	-12864.5072	-12876.2152	-12882.1458	-12889.8819	-12896.1736	-12903.7455	-12910.3545	-12918.6814	-12923.7585	-12930.5754	-12937.8957	-12942.5351	-12949.5709	-12953.6085	-12954.6371	-12954.5167	-12950.0414	-12907.4111	-12906.6670	-12942.9290	-12978.1406	-13001.6114	-13017.8713	-13027.1283	-13033.7373	-13046.0143	-13052.7765	-13057.0330	-13064.7800	-13070.5027	-13075.1312	-13080.5694	-13087.6270	-13093.9515	-13102.1143	-13109.5002	-13115.8904	-13125.5741	-13135.2907	-13133.1789	-13147.3926	-13155.5882	-13163.3461	-13171.6184
-12234.4408	-12241.7282	-12248.7640	-12259.3888	-12256.3578	-12271.3266	-12282.4218	-12291.3724	-12299.7322	-12305.1813	-12312.7314	-12320.4017	-12326.4418	-12327.9518	-12324.5707	-12310.3679	-12190.1036	-11958.0113	-11927.9425	-12059.7178	-12202.7088	-12335.2830	-12391.1860	-12411.8228	-12423.8153	-12432.5799	-12441.5086	-12451.4221	-12456.7400	-12463.9180	-12472.5513	-12477.2235	-12483.0338	-12491.6671	-12499.7751	-12505.3665	-12510.6078	-12514.3281	-12515.9694	-12515.4770	-12512.2382	-12481.5347	-12450.0325	-12518.3329	-12558.5122	-12571.1284	-12583.0334	-12593.3408	-12599.9826	-12608.5065	-12616.0237	-12623.6503	-12630.7080	-12635.2818	-12643.5649	-12648.3247	-12655.0760	-12663.3591	-12672.0033	-12680.1990	-12689.1386	-12696.6996	-12704.1183	-12711.8872	-12720.0609	-12726.0353	-12734.4060	-12741.8138	-12748.4228	-12754.8239	-12761.1593	-12770.8103	-12775.4059	-12778.6229	-12773.6005	-12757.4828	-12576.5994	-12194.8305	-11988.2989	-12049.0165	-12194.5898	-12338.2811	-12481.2830	-12624.8977	-12765.7331	-12866.0172	-12881.9926	-12889.8491	-12896.9942	-12904.9272	-12908.4725	-12913.6699	-12923.4084	-12930.3785	-12935.1492	-12941.4956	-12946.3211	-12950.2821	-12955.5671	-12958.4887	-12962.8546	-12968.1505	-12974.0155	-12983.8086	-12993.9300	-13002.5196	-13014.0963	-13022.9812	-13028.6383	-13037.0965	-13044.0557	-13050.7850	-13055.7965	-13062.0773	-13065.4255	-13069.0693	-13073.6649	-13081.0289	-13090.8440	-13101.6329	-13109.9598	-13119.5231	-13129.4585	-13136.6803	-13145.4011	-13152.1962	-13158.0283	-13166.1801
-12255.7341	-12266.2166	-12273.9417	-12282.3671	-12289.3481	-12297.7079	-12303.7917	-12312.1733	-12321.3756	-12327.7439	-12333.5541	-12339.6489	-12346.3782	-12346.5095	-12339.5066	-12285.3215	-11972.5314	-11655.0800	-11579.5359	-11703.6409	-11848.7218	-11991.7785	-12135.0102	-12277.8043	-12407.1396	-12451.3783	-12459.2676	-12464.5745	-12472.0260	-12478.7007	-12484.5000	-12489.9382	-12498.0463	-12506.3185	-12512.0521	-12518.6393	-12523.4538	-12528.6403	-12532.1308	-12534.9867	-12538.5538	-12546.5306	-12556.3894	-12564.3662	-12573.5903	-12585.5500	-12593.8551	-12600.4750	-12607.3576	-12615.1265	-12621.8668	-12628.1147	-12633.9796	-12635.5991	-12638.8051	-12647.8980	-12652.4280	-12662.0023	-12670.0338	-12683.2190	-12692.1805	-12698.3628	-12706.9961	-12715.5637	-12722.0852	-12728.2237	-12738.1591	-12743.5098	-12750.9832	-12757.7345	-12762.8773	-12769.5629	-12774.8369	-12779.0059	-12776.2922	-12743.8271	-12624.0552	-12307.5667	-11992.6867	-12000.0069	-12129.4516	-12274.8280	-12418.1910	-12561.8604	-12704.1730	-12832.8956	-12881.0516	-12889.4661	-12895.6812	-12902.5637	-12906.5467	-12912.7399	-12919.4145	-12927.6101	-12933.6173	-12938.9680	-12943.0385	-12947.9843	-12954.8340	-12959.3203	-12962.8546	-12966.5967	-12972.6696	-12985.8767	-12993.0437	-13003.7560	-13013.1553	-13019.1515	-13026.8547	-13034.1640	-13039.0989	-13043.9681	-13047.4477	-13051.3103	-13049.1875	-13052.0653	-13054.4178	-13069.4522	-13081.7183	-13092.5181	-13107.5306	-13114.7305	-13125.6288	-13135.5423	-13140.7289	-13148.6400	-13155.7742	-13161.9893
-12210.7294	-12222.2842	-12229.5169	-12240.8310	-12247.5494	-12252.7797	-12260.8331	-12268.9084	-12276.1848	-12284.5117	-12291.1208	-12296.2745	-12302.5881	-12305.4330	-12304.8421	-12277.0821	-12064.8387	-11732.1778	-11642.3872	-11665.1358	-11809.3851	-11952.6934	-12096.5160	-12239.9885	-12365.3846	-12404.0429	-12413.4750	-12417.4142	-12425.1174	-12432.9300	-12439.2983	-12445.0429	-12453.7747	-12460.9308	-12466.9817	-12473.8096	-12479.7621	-12485.5067	-12491.8968	-12496.6457	-12502.0292	-12508.6710	-12517.7748	-12527.1084	-12534.0895	-12543.4012	-12550.8746	-12560.0878	-12565.8652	-12574.4985	-12579.4115	-12585.7470	-12590.6490	-12588.7889	-12589.5877	-12592.9578	-12599.6872	-12613.9009	-12624.0442	-12637.0434	-12648.0293	-12656.7392	-12666.0727	-12675.0234	-12682.9564	-12689.3246	-12696.7981	-12704.3262	-12711.3073	-12715.2136	-12723.3217	-12729.3070	-12735.6206	-12740.7305	-12743.0174	-12740.9275	-12713.4957	-12653.3909	-12510.2029	-12230.4032	-12130.9945	-12233.2810	-12373.3614	-12517.3481	-12660.9190	-12792.1145	-12839.5046	-12846.7592	-12854.0904	-12861.2355	-12866.6190	-12871.8493	-12877.9878	-12886.4242	-12892.7049	-12898.0556	-12905.2664	-12911.0110	-12917.8279	-12923.2114	-12929.5360	-12936.5279	-12943.6950	-12950.7417	-12955.8735	-12966.0825	-12974.0811	-12980.4275	-12988.4371	-12994.8820	-13000.3530	-13005.3098	-13007.0605	-13005.0581	-13003.7451	-12992.2778	-12998.2740	-13010.5401	-13031.5161	-13048.7717	-13060.5563	-13074.2230	-13084.7164	-13094.1157	-13101.7751	-13106.9835	-13115.9232	-13122.9042
-12196.8110	-12210.6965	-12218.2684	-12226.5078	-12234.7472	-12243.8182	-12249.7816	-12256.4344	-12265.6914	-12271.8189	-12277.8043	-12286.2187	-12291.6788	-12295.8477	-12295.6836	-12290.4095	-12246.1598	-12132.1106	-11975.6937	-11876.0770	-11955.1335	-12096.3191	-12239.0146	-12350.9739	-12377.0817	-12390.9891	-12399.5786	-12406.6253	-12413.4094	-12420.8062	-12429.5380	-12435.3263	-12442.3511	-12451.5097	-12456.7837	-12464.2681	-12470.5051	-12477.3439	-12485.3535	-12490.3431	-12496.9630	-12502.8389	-12511.5488	-12519.4052	-12526.6489	-12534.1223	-12542.0115	-12551.6187	-12557.5930	-12562.1121	-12568.7758	-12573.5466	-12573.2840	-12572.8791	-12561.7839	-12548.7956	-12565.8762	-12580.4401	-12604.9503	-12621.4400	-12633.2575	-12645.2281	-12653.2267	-12664.6065	-12672.5942	-12679.1813	-12684.4664	-12693.6358	-12702.7725	-12708.4514	-12713.4738	-12720.8269	-12727.4140	-12733.0382	-12734.0996	-12734.7124	-12731.1562	-12724.1095	-12687.9788	-12695.3100	-12564.4756	-12381.1084	-12510.2576	-12653.3252	-12778.5901	-12820.5310	-12828.4421	-12833.1363	-12842.5027	-12848.5865	-12853.7512	-12862.5048	-12867.8774	-12874.3113	-12882.3100	-12888.7220	-12895.2435	-12901.7759	-12908.8773	-12915.8036	-12922.7081	-12930.1049	-12937.6331	-12944.3734	-12950.6104	-12958.5543	-12966.7937	-12973.6544	-12980.2087	-12986.0408	-12990.9210	-12994.7726	-12995.1118	-12988.7873	-12868.3588	-12601.7224	-12659.7701	-12803.0128	-12943.2245	-13027.4784	-13055.3260	-13067.0231	-13077.5822	-13087.3972	-13093.8093	-13100.4621	-13109.0078	-13117.1268
-12170.4844	-12185.7267	-12192.6093	-12202.5228	-12213.2242	-12219.5815	-12224.1772	-12233.3794	-12242.0237	-12247.9981	-12254.8259	-12261.7632	-12268.7223	-12272.0597	-12275.8456	-12272.6724	-12267.4531	-12253.9396	-12240.4371	-12251.5652	-12254.9572	-12300.5419	-12329.8448	-12342.3078	-12355.7775	-12366.2819	-12376.4470	-12385.6056	-12390.7264	-12400.2023	-12406.1219	-12413.0045	-12420.2044	-12428.7283	-12435.7968	-12442.7451	-12449.6276	-12457.8232	-12465.4061	-12473.4157	-12481.9177	-12486.0647	-12493.8992	-12501.8870	-12509.1415	-12516.8119	-12524.5370	-12531.6166	-12539.3635	-12544.8674	-12550.2837	-12554.0588	-12547.2637	-12442.1432	-12304.9297	-12100.5536	-12188.1559	-12332.4490	-12475.6260	-12586.7537	-12618.8358	-12631.6052	-12641.4312	-12651.6730	-12662.3524	-12667.7359	-12673.5681	-12682.2123	-12690.7362	-12696.9513	-12703.9761	-12708.9328	-12716.0452	-12723.0262	-12726.1447	-12728.1690	-12729.6899	-12730.5215	-12730.4012	-12735.3689	-12747.7444	-12760.9624	-12760.8201	-12784.6629	-12800.2554	-12810.9567	-12818.4411	-12824.6343	-12832.0311	-12837.1849	-12844.5598	-12851.8472	-12855.0533	-12863.5553	-12871.8275	-12879.3447	-12886.7524	-12894.0836	-12904.4567	-12909.8621	-12916.3289	-12924.9403	-12932.3699	-12938.8148	-12947.0104	-12953.5100	-12961.2898	-12967.3299	-12972.6696	-12980.0993	-12984.8810	-12987.4961	-12986.3581	-12885.7895	-12546.7166	-12342.6360	-12311.4621	-12449.2446	-12592.6296	-12735.6096	-12879.5963	-13015.7048	-13074.7154	-13086.6750	-13092.1789	-13099.2913	-13106.9726	-13114.7743
-12148.7097	-12162.7155	-12170.3750	-12180.8466	-12189.8738	-12195.8810	-12202.9933	-12211.8345	-12217.4587	-12226.6829	-12232.8761	-12237.7016	-12245.5470	-12251.3354	-12253.9834	-12254.6618	-12254.0818	-12254.3773	-12260.5377	-12268.6348	-12283.9209	-12300.7717	-12312.4578	-12325.6758	-12335.0204	-12344.5618	-12351.7508	-12359.6400	-12366.4132	-12374.4009	-12381.1412	-12386.9295	-12393.9544	-12402.0953	-12407.9383	-12417.3266	-12425.0517	-12433.3786	-12440.6113	-12449.8027	-12458.7861	-12463.3927	-12473.6673	-12479.9590	-12487.3449	-12496.4487	-12502.1933	-12509.3932	-12514.5798	-12520.3025	-12524.7887	-12525.7407	-12385.8135	-12002.3923	-11784.5138	-11770.5517	-11850.9321	-11994.2733	-12138.4570	-12281.8200	-12426.0037	-12563.6112	-12622.8844	-12634.3188	-12641.2233	-12646.9460	-12654.2772	-12660.6017	-12667.9438	-12676.4896	-12681.0196	-12686.3265	-12695.1896	-12700.1682	-12703.1773	-12706.7116	-12711.0775	-12715.6294	-12718.4196	-12725.2694	-12736.8679	-12745.5560	-12756.4543	-12765.3173	-12773.7646	-12784.5426	-12792.6835	-12797.0165	-12802.0718	-12809.5233	-12815.2679	-12820.7718	-12823.5182	-12833.2567	-12840.2486	-12849.4509	-12857.9748	-12866.3127	-12876.2152	-12884.2905	-12890.1335	-12897.6289	-12907.6409	-12913.1557	-12919.8194	-12925.6077	-12933.2234	-12940.1060	-12945.8396	-12952.0000	-12955.1185	-12956.8145	-12953.9477	-12886.6759	-12595.5620	-12300.5966	-12193.6816	-12275.8675	-12423.1259	-12567.4081	-12711.5480	-12855.9396	-12993.2407	-13054.8993	-13066.0602	-13071.7063	-13077.1883	-13083.8958
-12203.4091	-12218.3560	-12224.2647	-12236.6621	-12245.7659	-12253.4363	-12261.2708	-12267.1576	-12275.5174	-12284.0960	-12290.1688	-12297.3030	-12303.0695	-12309.2408	-12315.3356	-12319.2309	-12322.9184	-12329.0569	-12336.3225	-12344.9776	-12354.4425	-12365.4065	-12374.5431	-12385.0584	-12394.0966	-12400.3008	-12407.9711	-12416.3090	-12422.1302	-12426.7477	-12431.8577	-12437.7555	-12442.0666	-12448.9383	-12462.4517	-12469.2139	-12479.0618	-12490.3431	-12499.1077	-12507.1610	-12514.4375	-12521.9875	-12530.0081	-12537.7879	-12545.6224	-12551.4764	-12560.3942	-12567.1236	-12574.1593	-12578.4705	-12581.2389	-12578.8535	-12520.4885	-12260.5814	-11900.9921	-11767.2581	-11815.1625	-11960.7906	-12105.6745	-12249.1579	-12393.2431	-12535.2603	-12657.1112	-12690.5283	-12697.3014	-12704.5998	-12708.7249	-12714.3492	-12723.6499	-12731.3094	-12737.4807	-12743.6958	-12749.8671	-12755.0427	-12761.3344	-12765.9957	-12772.3421	-12777.8679	-12782.7590	-12790.6592	-12799.4457	-12807.1270	-12816.6466	-12823.9121	-12832.7096	-12838.5745	-12845.8838	-12853.6199	-12856.1365	-12861.8483	-12865.6452	-12865.0653	-12868.1619	-12874.8584	-12886.1616	-12898.2635	-12909.2493	-12919.5568	-12931.3414	-12936.9875	-12946.1898	-12954.3854	-12960.1956	-12968.8399	-12975.0550	-12979.8148	-12991.4790	-12996.9501	-13003.6028	-13009.1505	-13012.8489	-13012.9802	-13002.7822	-12946.7150	-12867.9211	-12722.5448	-12422.8742	-12403.5506	-12521.8453	-12665.0770	-12809.0637	-12950.5228	-13073.3695	-13111.3275	-13118.9432	-13123.2653	-13129.8196	-13138.6280
-12190.5194	-12216.0144	-12217.2727	-12228.8057	-12241.7720	-12243.8291	-12256.3469	-12259.6842	-12268.6676	-12279.6972	-12281.0212	-12292.4119	-12296.9638	-12301.1765	-12312.0201	-12313.6943	-12319.8546	-12329.2211	-12334.2435	-12346.3892	-12351.9806	-12360.1652	-12372.3656	-12376.6878	-12388.2426	-12394.3811	-12399.1628	-12408.6824	-12409.8204	-12413.2452	-12417.8956	-12417.6330	-12422.1958	-12435.3482	-12446.0605	-12458.2062	-12468.4699	-12481.5675	-12490.5838	-12501.2195	-12509.7324	-12513.9342	-12523.9243	-12533.5533	-12539.3307	-12546.6838	-12553.1724	-12560.4817	-12568.0318	-12571.9600	-12575.6256	-12576.2493	-12563.9613	-12517.5888	-12393.1775	-12132.3294	-11953.4375	-12070.5942	-12214.0010	-12357.9549	-12500.3988	-12626.7469	-12669.4648	-12678.9734	-12686.3265	-12694.2048	-12698.9208	-12706.4052	-12712.1389	-12720.7503	-12727.0529	-12733.1914	-12741.0259	-12745.5341	-12753.1060	-12758.4567	-12766.2365	-12771.8060	-12778.0977	-12785.8118	-12792.6506	-12802.4219	-12811.7664	-12816.1980	-12823.0805	-12832.0311	-12836.1891	-12841.9337	-12846.3434	-12845.5555	-12841.7586	-12835.9594	-12825.4112	-12837.8414	-12864.0914	-12880.0997	-12895.6374	-12909.4244	-12920.3446	-12931.4070	-12938.7492	-12945.0518	-12952.0876	-12960.7099	-12967.2204	-12974.3328	-12983.4366	-12991.3915	-12997.3221	-13005.0144	-13008.3079	-13008.9316	-13007.5201	-13000.4078	-12991.5884	-12952.9192	-12902.5747	-12876.3028	-12744.0350	-12865.2294	-13003.6794	-13077.7682	-13092.9449	-13100.5496	-13109.1938	-13115.4089	-13121.7334	-13128.4081
-12176.9512	-12195.1041	-12201.3739	-12212.1518	-12221.5948	-12228.7728	-12236.4213	-12243.0632	-12252.9110	-12259.5967	-12265.5163	-12272.6177	-12278.8438	-12288.3524	-12295.5742	-12298.7474	-12308.1904	-12316.9659	-12322.1853	-12329.9761	-12338.1717	-12347.6366	-12355.9307	-12364.5749	-12370.7134	-12378.2415	-12384.8505	-12389.2055	-12391.6128	-12385.6056	-12375.3309	-12347.5162	-12350.9082	-12390.9672	-12416.8671	-12436.3439	-12451.5644	-12463.7648	-12473.7877	-12485.7036	-12492.9582	-12499.8298	-12508.2334	-12515.8709	-12522.8957	-12529.9862	-12535.6870	-12543.8389	-12551.0934	-12558.0526	-12562.3419	-12563.8191	-12563.9832	-12558.9827	-12544.0468	-12507.1282	-12500.2019	-12334.1669	-12388.5599	-12529.3187	-12622.6218	-12645.4141	-12655.1416	-12662.3196	-12669.6727	-12677.5729	-12684.6196	-12690.7362	-12697.8595	-12705.8034	-12712.7735	-12719.2293	-12725.9259	-12733.4978	-12741.0916	-12746.9128	-12754.2221	-12763.8073	-12770.2084	-12776.1062	-12783.9407	-12791.0421	-12799.9052	-12807.5318	-12814.2612	-12819.6447	-12827.3698	-12831.9655	-12832.2062	-12824.8203	-12789.2586	-12697.2248	-12582.4425	-12595.7371	-12732.1957	-12849.3743	-12884.3452	-12897.8039	-12913.4402	-12923.2990	-12929.7767	-12938.9461	-12946.3211	-12953.5976	-12960.6661	-12967.1986	-12974.5735	-12982.5503	-12988.6122	-12993.9300	-13000.3640	-13004.5548	-13005.7912	-13004.8174	-13003.9202	-13008.1985	-13009.6538	-13023.9004	-13038.8144	-13049.9972	-13067.8328	-13073.1835	-13082.8344	-13090.8768	-13100.4949	-13106.2723	-13114.6430	-13121.0550
-12172.5415	-12189.4799	-12195.4323	-12203.7593	-12214.0448	-12221.9012	-12228.9479	-12235.5897	-12242.9647	-12249.3986	-12259.2793	-12266.3807	-12273.1867	-12281.8638	-12289.2497	-12296.6356	-12304.2184	-12312.9064	-12319.6796	-12325.4132	-12334.2654	-12341.9139	-12352.7465	-12359.5962	-12365.7566	-12371.8295	-12378.9747	-12382.3995	-12379.8938	-12364.9360	-12295.9353	-12096.7677	-12080.8470	-12220.3584	-12357.2218	-12423.6402	-12446.2246	-12460.1211	-12471.4570	-12480.7140	-12491.8859	-12496.4050	-12505.6510	-12513.2667	-12518.4532	-12526.9224	-12534.3740	-12541.6176	-12549.1676	-12554.4855	-12559.7267	-12562.7249	-12564.7492	-12564.7054	-12566.0622	-12569.5308	-12579.1270	-12591.9840	-12604.1187	-12616.8334	-12629.1980	-12639.2537	-12646.7600	-12654.7696	-12664.6940	-12671.0623	-12676.5005	-12682.8141	-12689.7404	-12698.6254	-12702.6959	-12711.6027	-12719.3935	-12728.7489	-12736.1895	-12743.1159	-12748.7292	-12758.6317	-12767.6042	-12772.2655	-12779.2466	-12788.8209	-12795.4627	-12803.0018	-12810.2564	-12817.7627	-12824.7766	-12826.0458	-12824.8094	-12805.4638	-12695.7367	-12405.0606	-12147.4514	-12161.9715	-12305.8816	-12450.0544	-12594.2380	-12738.2029	-12872.0463	-12922.1938	-12930.2362	-12936.7468	-12944.8330	-12952.0000	-12957.4273	-12963.3032	-12970.2623	-12979.2567	-12986.0080	-12990.3958	-12996.3592	-13002.6180	-13005.4411	-13007.6186	-13009.9821	-13014.4136	-13023.1125	-13031.9756	-13040.8496	-13051.5401	-13063.6529	-13068.6644	-13079.2016	-13086.2045	-13093.0762	-13099.6305	-13104.1058	-13110.8351
-12178.3080	-12192.4233	-12198.6493	-12206.2650	-12213.9901	-12221.2337	-12228.7619	-12234.5612	-12239.9009	-12248.1512	-12259.2356	-12264.7066	-12274.4888	-12283.3628	-12292.4995	-12300.4543	-12306.3521	-12316.5392	-12323.0388	-12330.3919	-12337.4933	-12346.1375	-12355.4054	-12362.6710	-12368.7219	-12374.7291	-12380.6597	-12382.5418	-12382.2354	-12345.6451	-12129.4407	-11782.5223	-11708.5977	-11841.1499	-11985.2789	-12129.2656	-12273.9089	-12412.1838	-12475.0898	-12488.8440	-12492.8269	-12499.4469	-12506.0340	-12513.3980	-12520.9043	-12527.8087	-12535.0195	-12542.0772	-12548.2595	-12555.4593	-12559.4204	-12564.1692	-12568.8962	-12572.7150	-12579.3131	-12584.9810	-12591.3712	-12600.9127	-12609.6007	-12616.9319	-12627.3487	-12637.9626	-12643.8822	-12651.5854	-12660.6892	-12667.7359	-12669.8587	-12673.4477	-12679.6956	-12683.6238	-12691.8085	-12698.9427	-12706.2083	-12720.2032	-12729.8978	-12735.5549	-12744.8228	-12752.3838	-12760.1746	-12768.1842	-12774.5306	-12782.5292	-12788.8537	-12795.1454	-12801.6560	-12808.2103	-12813.8345	-12816.4715	-12815.8806	-12801.8310	-12670.2198	-12383.0013	-12148.3595	-12144.0155	-12280.6820	-12424.6469	-12568.1850	-12712.3030	-12849.2321	-12912.4007	-12919.7319	-12926.0345	-12933.2672	-12938.4866	-12944.7783	-12951.3107	-12959.1671	-12965.4478	-12971.5754	-12980.6135	-12984.5308	-12992.3872	-12997.4753	-13000.3202	-13006.6776	-13012.6191	-13020.3333	-13028.2881	-13034.9847	-13043.8478	-13053.5972	-13060.0530	-13066.3994	-13072.1987	-13079.7049	-13079.2016	-13087.0033	-13090.1109
-12045.8980	-12059.7397	-12064.5214	-12074.8069	-12081.3065	-12087.5982	-12093.5507	-12098.3105	-12100.9257	-12107.2611	-12119.3740	-12126.8365	-12134.1130	-12144.4095	-12157.7588	-12166.2936	-12173.6357	-12183.2210	-12191.4932	-12197.5442	-12206.1775	-12211.4625	-12218.7718	-12230.5564	-12235.6663	-12240.3277	-12247.9871	-12251.9700	-12251.9153	-12245.6455	-12080.9564	-11847.6386	-11775.7163	-11801.0144	-11943.7756	-12086.7666	-12230.0202	-12316.9441	-12337.9309	-12347.5490	-12358.9725	-12365.6910	-12370.9432	-12378.8652	-12385.3758	-12392.4334	-12400.7275	-12408.3869	-12414.1097	-12421.2986	-12427.5793	-12433.8820	-12439.5828	-12444.7803	-12451.2580	-12457.2652	-12465.1982	-12471.9713	-12480.2654	-12488.6033	-12496.8536	-12505.1915	-12512.9494	-12519.2630	-12528.7826	-12535.1290	-12536.7046	-12537.0985	-12539.4839	-12541.1799	-12546.5415	-12559.3000	-12566.9704	-12581.8954	-12596.0544	-12605.0160	-12614.2730	-12620.7069	-12628.6071	-12637.4155	-12645.5892	-12651.4870	-12658.5665	-12664.4643	-12671.5875	-12679.1376	-12684.9697	-12690.9112	-12692.3009	-12690.8347	-12686.7642	-12646.3114	-12441.4320	-12337.1103	-12443.5767	-12585.8783	-12711.2635	-12749.7030	-12766.0505	-12778.7323	-12786.1510	-12794.6859	-12800.3101	-12806.7003	-12813.7688	-12819.1195	-12827.1510	-12835.6858	-12842.6887	-12848.0722	-12855.5128	-12862.4392	-12868.3588	-12875.7338	-12880.0121	-12887.1792	-12896.4143	-12901.5024	-12908.9977	-12917.4778	-12923.6710	-12930.7615	-12937.2611	-12945.2706	-12950.2602	-12954.6480	-12956.8145	-12956.2893
-12043.8737	-12053.4480	-12060.0351	-12067.8040	-12074.3802	-12081.3722	-12083.6591	-12084.9721	-12087.1387	-12089.4474	-12097.6212	-12111.4738	-12121.7594	-12138.3476	-12150.6574	-12159.6299	-12171.2504	-12178.0235	-12186.1644	-12194.7758	-12200.9471	-12209.0990	-12216.3208	-12222.6781	-12229.1667	-12234.5284	-12241.4656	-12246.7288	-12247.7683	-12245.0218	-12236.6511	-12191.2415	-11983.2546	-11991.8113	-12125.7423	-12251.5323	-12295.7930	-12314.9964	-12326.6497	-12339.2768	-12347.0238	-12354.6833	-12363.8308	-12370.1335	-12376.9504	-12383.8876	-12387.9800	-12398.2546	-12406.7347	-12413.2124	-12417.9831	-12425.1283	-12432.9410	-12438.5105	-12446.2027	-12453.2276	-12461.6858	-12468.3057	-12474.9913	-12484.8173	-12493.2427	-12499.9283	-12506.1762	-12512.0193	-12519.3177	-12523.5960	-12523.2349	-12522.3924	-12520.5432	-12514.3609	-12515.3348	-12528.9139	-12550.0649	-12569.5090	-12584.3026	-12593.7238	-12604.1078	-12614.4809	-12619.2844	-12630.6314	-12637.3060	-12642.6567	-12651.2791	-12658.0741	-12663.4795	-12672.0252	-12677.1680	-12683.3940	-12686.2390	-12686.9721	-12685.5496	-12680.9868	-12672.0690	-12664.3986	-12689.3794	-12709.1407	-12729.6899	-12744.0678	-12757.1764	-12767.8450	-12776.2375	-12783.6453	-12792.8476	-12801.5028	-12806.7550	-12811.9853	-12817.5876	-12825.4221	-12832.6330	-12842.1416	-12847.6345	-12855.1189	-12864.4197	-12869.0263	-12876.0402	-12883.8309	-12890.2211	-12898.5371	-12904.6865	-12911.7879	-12919.9288	-12925.4546	-12932.2496	-12937.5018	-12942.7102	-12948.2907	-12948.2031	-12944.5813
-12034.9997	-12044.9023	-12049.7277	-12056.8401	-12062.2564	-12066.8083	-12067.4101	-12064.8825	-12061.6655	-12050.3405	-12061.0309	-12083.7247	-12104.4381	-12119.9430	-12133.7081	-12148.4252	-12157.6603	-12166.2717	-12174.4017	-12182.2034	-12190.2677	-12196.8110	-12206.1337	-12213.3007	-12218.4545	-12225.0744	-12232.8214	-12238.9271	-12240.5246	-12240.1526	-12237.2639	-12233.2700	-12225.5887	-12225.0635	-12252.6922	-12277.8480	-12290.5080	-12304.8093	-12317.9398	-12324.9646	-12337.8762	-12344.0585	-12350.6456	-12358.6552	-12365.0235	-12371.8842	-12376.3048	-12385.0475	-12393.1337	-12398.9002	-12407.7961	-12416.3637	-12422.7977	-12431.2121	-12440.3269	-12446.9906	-12454.5078	-12461.1277	-12469.5969	-12475.0351	-12483.3839	-12492.4768	-12497.7837	-12502.8389	-12510.0607	-12514.0108	-12513.6169	-12506.3513	-12492.7613	-12383.8329	-12296.3730	-12415.7728	-12524.5589	-12551.2685	-12574.1593	-12587.3445	-12597.0939	-12608.4080	-12615.3234	-12622.3154	-12630.1499	-12638.3346	-12646.6177	-12652.1325	-12658.7744	-12665.5585	-12672.6380	-12678.7984	-12684.2475	-12685.9435	-12687.9788	-12689.8499	-12690.2438	-12698.0345	-12707.2806	-12721.1661	-12731.5501	-12741.4636	-12755.3163	-12764.0918	-12772.5829	-12778.0320	-12787.8799	-12794.2919	-12800.3648	-12803.9210	-12809.6218	-12818.1457	-12825.5534	-12833.1363	-12841.7696	-12849.8230	-12858.9596	-12865.4154	-12871.2366	-12880.3185	-12888.1202	-12895.8891	-12901.4148	-12907.9472	-12914.9830	-12921.7671	-12931.1007	-12934.0222	-12939.7887	-12945.4020	-12943.9467	-12911.2627
-12033.6100	-12043.0093	-12047.7691	-12055.8772	-12059.6193	-12062.8254	-12060.0789	-12056.1398	-11961.8738	-11864.4128	-11958.5584	-12035.8860	-12090.6729	-12117.4920	-12134.3756	-12150.3619	-12158.0433	-12166.5562	-12177.1591	-12184.3699	-12190.9899	-12199.3715	-12206.2212	-12213.6399	-12219.3408	-12225.4793	-12233.4779	-12241.0170	-12244.2887	-12246.2145	-12247.7464	-12248.3591	-12252.5937	-12259.3997	-12269.2476	-12285.4747	-12298.4957	-12308.1576	-12317.1520	-12327.9846	-12335.4580	-12343.1503	-12349.6718	-12357.5610	-12363.9184	-12369.3675	-12373.8100	-12380.4300	-12390.9125	-12397.3792	-12405.5201	-12415.0944	-12421.5174	-12429.4833	-12438.8168	-12446.1699	-12453.3151	-12459.9022	-12467.5179	-12475.0789	-12482.7055	-12489.3036	-12497.1819	-12501.0772	-12507.9707	-12510.7063	-12505.5635	-12424.3514	-12227.5254	-11967.0494	-11909.3519	-12036.8927	-12181.2514	-12324.9974	-12469.7720	-12576.7636	-12598.8665	-12605.9132	-12615.7064	-12622.4139	-12629.4715	-12636.0039	-12643.6962	-12650.7101	-12654.9884	-12663.7968	-12669.9681	-12675.7784	-12681.2166	-12684.1709	-12689.5216	-12694.8504	-12698.3081	-12705.6940	-12715.5200	-12724.8426	-12734.4716	-12743.3894	-12750.6550	-12758.5770	-12766.4663	-12774.0382	-12780.8441	-12785.2428	-12790.2105	-12792.2786	-12796.7211	-12806.7112	-12813.1780	-12825.3784	-12834.2196	-12840.7957	-12850.7859	-12860.0976	-12867.5272	-12873.3375	-12882.9665	-12890.0241	-12894.4447	-12902.4543	-12907.9801	-12916.0663	-12923.2552	-12928.2338	-12935.2149	-12937.4690	-12935.9589	-12909.6323
-12186.8538	-12203.2669	-12208.2236	-12212.0643	-12214.6357	-12206.6917	-12123.5648	-11816.0488	-11562.6961	-11594.4281	-11736.4452	-11880.8697	-12025.6223	-12169.4449	-12282.5203	-12309.7004	-12317.8194	-12323.6078	-12333.0836	-12341.7388	-12346.5314	-12352.8340	-12361.0078	-12366.7742	-12372.1140	-12379.0950	-12387.0061	-12390.6827	-12395.1689	-12397.9592	-12399.7537	-12404.7542	-12410.4659	-12416.0792	-12428.3562	-12439.9877	-12449.0915	-12459.4317	-12466.9051	-12474.4771	-12483.3401	-12489.0628	-12493.5929	-12503.0249	-12507.2923	-12508.9446	-12516.6587	-12523.8039	-12529.3297	-12541.4863	-12552.6800	-12559.1140	-12568.4147	-12575.8006	-12581.8954	-12590.3755	-12600.0592	-12606.0555	-12611.1107	-12620.6303	-12628.1256	-12635.3255	-12641.0701	-12645.0858	-12649.6268	-12644.7685	-12604.6002	-12473.3719	-12150.2525	-11947.1239	-11977.8602	-12120.9497	-12264.7832	-12408.8465	-12552.7348	-12687.4864	-12742.8095	-12750.2501	-12759.3648	-12764.3325	-12769.2346	-12777.7804	-12782.6167	-12789.4118	-12795.9114	-12801.5137	-12808.6589	-12813.9986	-12820.4763	-12823.3979	-12829.9522	-12836.0797	-12841.5289	-12849.5494	-12856.4976	-12866.8269	-12875.2633	-12880.7562	-12889.6959	-12896.2721	-12903.5704	-12909.3697	-12915.2784	-12918.6705	-12922.5877	-12925.7938	-12926.5159	-12935.3571	-12947.2730	-12955.7422	-12967.3846	-12975.7662	-12988.0760	-12999.2369	-13003.0886	-13009.4459	-13017.0506	-13025.3885	-13032.4461	-13038.3439	-13044.1323	-13051.7917	-13058.8603	-13064.6377	-13067.9313	-13067.2966	-13058.4117	-13011.7219
-12189.7315	-12197.7302	-12202.8948	-12207.3483	-12207.7641	-12200.7174	-12119.9539	-11863.7672	-11593.3339	-11533.3166	-11631.9703	-11776.1103	-11919.5280	-12063.8320	-12205.5209	-12297.4672	-12314.3617	-12318.7933	-12325.6430	-12335.2830	-12341.2136	-12346.7393	-12353.0091	-12361.5330	-12366.7742	-12372.9127	-12380.9552	-12386.5137	-12392.9039	-12397.2370	-12400.9792	-12408.8684	-12416.4950	-12423.1040	-12429.7349	-12438.6308	-12449.3103	-12458.4250	-12464.0383	-12470.7677	-12478.2083	-12483.9310	-12488.5923	-12492.0172	-12493.8992	-12495.1904	-12501.1976	-12508.4522	-12521.8562	-12533.9363	-12545.9726	-12553.5773	-12561.7839	-12571.6427	-12579.4334	-12586.6224	-12593.7566	-12601.8100	-12609.6882	-12616.3848	-12623.1579	-12630.4454	-12634.9535	-12639.8884	-12642.7005	-12641.2342	-12625.5761	-12565.2525	-12423.0931	-12252.3092	-12169.0838	-12277.5088	-12421.2220	-12564.2458	-12687.4317	-12725.8055	-12733.5525	-12741.5949	-12749.9109	-12754.7035	-12760.5685	-12768.5124	-12775.5372	-12782.9012	-12790.0683	-12795.1782	-12801.7435	-12808.9762	-12774.4102	-12756.6512	-12817.3688	-12833.5193	-12842.1416	-12846.7920	-12855.1517	-12865.0324	-12872.1776	-12877.3423	-12885.8771	-12892.4861	-12899.4453	-12904.3473	-12906.4482	-12908.8664	-12905.8135	-12895.3091	-12892.0265	-12907.6737	-12927.2928	-12942.5461	-12960.2941	-12968.9821	-12978.5674	-12990.8334	-12996.5233	-13002.8150	-13011.8641	-13020.0488	-13027.1392	-13031.8553	-13039.7226	-13043.7384	-13053.2470	-13057.2080	-13061.3441	-13064.4626	-13062.2633	-13051.2665
-12171.7646	-12179.7195	-12184.2714	-12190.6069	-12192.7515	-12188.2981	-12150.0556	-12099.9518	-11947.2005	-11755.8237	-11798.7932	-11922.3620	-12066.7207	-12205.2474	-12271.9393	-12282.8376	-12293.3201	-12301.2094	-12309.0439	-12317.0754	-12324.0783	-12331.3219	-12338.5984	-12345.4919	-12352.9544	-12357.9112	-12365.6144	-12370.1116	-12378.0227	-12385.0913	-12391.2188	-12397.7184	-12405.2137	-12412.6981	-12420.0621	-12428.4219	-12437.2084	-12444.1785	-12450.1857	-12456.6415	-12463.8085	-12467.2991	-12471.8400	-12469.7391	-12461.0183	-12449.3322	-12456.9260	-12479.6745	-12495.1138	-12511.8114	-12526.5394	-12536.9672	-12547.1762	-12555.9080	-12566.6093	-12571.8943	-12581.2389	-12589.1500	-12595.6058	-12605.6069	-12610.0493	-12615.8705	-12623.8692	-12627.7864	-12631.5943	-12632.5572	-12630.8940	-12621.6479	-12590.7913	-12566.2592	-12533.5971	-12530.1831	-12619.2626	-12681.7856	-12699.7196	-12714.5680	-12720.7831	-12729.8431	-12736.7914	-12742.9408	-12751.4209	-12758.3691	-12764.1684	-12771.9154	-12775.9093	-12783.6891	-12792.0379	-12798.3077	-12804.8073	-12797.0165	-12793.8324	-12823.6605	-12833.4646	-12838.2900	-12845.0632	-12853.9809	-12862.7565	-12871.2804	-12875.9636	-12882.4303	-12889.0284	-12893.5365	-12893.6241	-12886.6868	-12857.5262	-12810.0376	-12720.8706	-12765.8863	-12865.1090	-12923.4959	-12944.3077	-12959.5829	-12971.6520	-12980.1540	-12990.4833	-12995.4838	-13003.8983	-13014.0635	-13020.5849	-13024.4037	-13032.2711	-13038.9020	-13045.2484	-13050.6975	-13056.2780	-13061.3004	-13061.0706	-13060.0639
-12143.9280	-12152.7473	-12157.0913	-12164.8711	-12167.9896	-12168.9854	-12166.9064	-12156.7631	-12132.2309	-12108.2459	-12101.0679	-12151.2811	-12213.4430	-12231.9132	-12246.7835	-12256.1827	-12266.4464	-12273.3508	-12281.7872	-12290.5627	-12298.1018	-12305.3564	-12310.7946	-12317.1629	-12325.1615	-12332.2192	-12340.1522	-12347.9539	-12356.6528	-12362.6163	-12370.6259	-12378.6683	-12384.4457	-12393.9215	-12400.7603	-12406.8003	-12415.0835	-12422.6554	-12429.6036	-12435.3701	-12441.6508	-12446.9687	-12447.3954	-12432.8753	-12349.1903	-12273.1976	-12229.8014	-12356.0072	-12453.9826	-12487.1152	-12506.5811	-12517.3153	-12530.9710	-12541.8036	-12551.6187	-12557.3304	-12565.8652	-12573.9514	-12581.7203	-12587.1148	-12594.3693	-12600.7923	-12608.4846	-12612.9380	-12617.2273	-12622.4248	-12623.6284	-12622.4358	-12620.8820	-12621.1993	-12631.7037	-12648.5435	-12662.9980	-12675.3626	-12689.0839	-12701.2187	-12708.6046	-12717.3254	-12725.7836	-12731.2547	-12737.5682	-12744.6587	-12751.7820	-12757.2859	-12764.4201	-12771.9482	-12775.5810	-12785.8994	-12795.5612	-12800.4961	-12810.5190	-12815.0162	-12825.1705	-12833.1582	-12835.7296	-12845.9385	-12854.1998	-12862.1984	-12869.4311	-12875.4821	-12880.6687	-12884.2577	-12882.4522	-12869.9126	-12783.8094	-12511.2643	-12296.0009	-12332.1535	-12476.3919	-12620.5975	-12764.7702	-12902.3340	-12964.5178	-12977.4622	-12987.1678	-12993.8534	-13001.0314	-13008.0891	-13015.2999	-13020.3770	-13028.0474	-13032.0850	-13038.4096	-13045.9487	-13052.0653	-13057.3831	-13059.4074	-13061.3004
-12144.7705	-12154.2136	-12160.9320	-12168.9088	-12172.6291	-12174.1828	-12176.0102	-12175.0144	-12175.5397	-12182.7505	-12191.9528	-12209.5148	-12221.6058	-12236.5636	-12247.8011	-12257.0909	-12266.9826	-12273.9198	-12279.7082	-12289.1731	-12298.4957	-12303.4415	-12310.7071	-12315.8389	-12323.0826	-12329.9761	-12338.3249	-12347.9101	-12358.7318	-12364.8594	-12371.9936	-12379.9485	-12389.0632	-12395.6832	-12401.3184	-12410.0830	-12418.2129	-12423.7168	-12432.2407	-12437.9634	-12443.3140	-12447.9316	-12444.6818	-12323.3670	-12115.4458	-11956.1183	-11828.1398	-11960.8890	-12105.3791	-12250.1099	-12393.7902	-12508.9665	-12535.1618	-12546.6729	-12553.8180	-12561.3790	-12568.6336	-12575.3739	-12584.7075	-12589.2813	-12595.7043	-12604.6330	-12611.0341	-12615.6188	-12620.1817	-12625.3463	-12630.1171	-12632.6994	-12634.0015	-12637.9297	-12649.2876	-12659.7045	-12669.4976	-12679.6300	-12688.8541	-12700.3980	-12706.7554	-12714.3929	-12723.5514	-12728.7380	-12735.4127	-12737.7652	-12743.4551	-12748.6197	-12753.5437	-12762.1004	-12772.1561	-12783.8532	-12789.6306	-12798.0779	-12807.2145	-12815.0162	-12822.3036	-12831.2543	-12836.1344	-12842.8966	-12851.6393	-12858.4891	-12864.4853	-12870.8427	-12877.5064	-12879.7714	-12878.7757	-12856.2460	-12724.6675	-12421.1235	-12205.6085	-12210.8388	-12352.2979	-12496.5035	-12640.6981	-12784.2034	-12918.0030	-12972.5711	-12984.8372	-12989.2578	-12994.2802	-13002.5962	-13008.9426	-13014.2604	-13021.4384	-13027.1392	-13036.0133	-13042.6660	-13046.8568	-13051.6932	-13055.3151	-13061.7052
-12116.2446	-12124.6700	-12130.1848	-12140.0217	-12147.5827	-12149.3006	-12153.1522	-12157.7807	-12160.8226	-12167.1252	-12178.0016	-12187.0835	-12196.4828	-12207.8188	-12218.2575	-12228.6744	-12238.7411	-12244.4638	-12250.9634	-12258.9401	-12262.9887	-12270.0026	-12275.7800	-12280.1787	-12288.1555	-12296.6137	-12301.8112	-12315.6857	-12326.5512	-12332.9414	-12341.7388	-12350.8864	-12360.0230	-12365.8661	-12372.2453	-12379.8938	-12385.9229	-12394.3702	-12400.8588	-12407.5225	-12413.7486	-12418.7272	-12414.4160	-12266.2166	-11952.5621	-11826.9143	-11770.1140	-11786.2864	-11926.6185	-12070.4411	-12214.5044	-12358.2066	-12481.0642	-12514.9408	-12524.4276	-12530.9382	-12536.9454	-12544.2328	-12551.4545	-12560.0112	-12565.7121	-12574.1703	-12579.6085	-12585.4406	-12591.4588	-12597.3346	-12603.7686	-12608.4080	-12612.7192	-12618.3325	-12624.5148	-12631.7256	-12641.2671	-12650.6335	-12660.0874	-12667.8563	-12675.5267	-12679.9035	-12689.7295	-12697.8923	-12699.2600	-12702.2582	-12702.6849	-12707.3244	-12711.4933	-12720.4001	-12732.5458	-12747.1097	-12758.0299	-12766.6523	-12774.5306	-12782.1244	-12789.7947	-12797.4433	-12804.5447	-12811.0990	-12819.1304	-12827.9716	-12832.1625	-12838.7058	-12844.1987	-12849.9324	-12851.7378	-12848.9038	-12796.2615	-12721.8554	-12522.6769	-12404.5353	-12485.5833	-12627.3487	-12770.8868	-12890.4290	-12927.1725	-12936.6155	-12944.8549	-12952.3830	-12960.1519	-12966.8812	-12974.6720	-12981.2591	-12985.9752	-12994.0613	-13000.2327	-13007.5092	-13014.5230	-13023.5065	-13027.7082	-13031.7568
-12107.1626	-12116.2008	-12122.1423	-12131.1696	-12136.5312	-12142.6806	-12148.5346	-12154.8591	-12161.0742	-12166.8735	-12175.9555	-12185.3766	-12194.2834	-12202.1398	-12211.9658	-12221.5511	-12228.7181	-12235.0208	-12241.5641	-12247.6041	-12250.5147	-12253.1189	-12257.4520	-12260.4282	-12268.2518	-12278.6906	-12291.2630	-12303.8464	-12315.5216	-12324.2096	-12331.8143	-12342.1765	-12349.9672	-12357.8565	-12363.8418	-12370.2867	-12377.6944	-12386.3824	-12392.0614	-12398.1233	-12406.3955	-12411.3413	-12411.1772	-12400.3664	-12338.2811	-12245.8972	-12062.5409	-11990.7171	-12122.9192	-12266.8731	-12407.1286	-12477.2563	-12490.4634	-12501.9745	-12511.1439	-12519.2301	-12527.2288	-12533.0937	-12542.0334	-12549.5616	-12556.7067	-12563.9394	-12571.7193	-12576.4572	-12582.6832	-12589.5329	-12598.4945	-12605.0379	-12608.4190	-12613.5617	-12621.3634	-12629.3730	-12638.5534	-12645.5564	-12653.6644	-12661.0941	-12668.4909	-12675.0015	-12682.5624	-12686.9502	-12687.6286	-12687.7052	-12685.4074	-12669.5414	-12690.0140	-12702.0284	-12711.9528	-12731.8127	-12747.7115	-12756.8919	-12766.2584	-12774.4977	-12783.8094	-12790.5388	-12796.9180	-12804.0851	-12813.0029	-12820.5857	-12827.5121	-12833.0488	-12838.5526	-12843.8267	-12847.1312	-12845.0960	-12840.6973	-12831.5059	-12798.5593	-12800.2116	-12748.9371	-12803.1878	-12884.7282	-12904.6646	-12916.1538	-12929.4703	-12939.0774	-12946.4086	-12951.7702	-12959.8127	-12967.0344	-12974.1140	-12980.9418	-12986.6973	-12992.5185	-13000.4843	-13012.0392	-13020.2020	-13025.9137	-13029.7434
-12093.9556	-12103.0047	-12107.4909	-12117.2731	-12123.4992	-12128.8608	-12137.4175	-12146.4666	-12154.2245	-12158.3278	-12167.3550	-12177.2247	-12185.0811	-12192.0075	-12199.1636	-12207.8188	-12215.2375	-12221.4854	-12227.4598	-12233.1387	-12233.9594	-12232.3400	-12230.9175	-12231.3114	-12238.5332	-12253.4910	-12269.4445	-12286.4923	-12301.8987	-12311.8779	-12321.9118	-12329.3524	-12338.8610	-12345.9077	-12352.4839	-12360.5920	-12366.7305	-12374.9370	-12381.5898	-12389.8730	-12396.1099	-12402.3360	-12402.5001	-12399.5567	-12395.3659	-12380.7801	-12355.3070	-12371.5340	-12331.1906	-12402.3360	-12452.8227	-12465.3404	-12478.1317	-12489.1394	-12499.0092	-12506.9641	-12514.0327	-12519.7225	-12528.9248	-12536.4530	-12542.4164	-12552.0673	-12558.8295	-12564.4428	-12571.1065	-12577.8687	-12587.6619	-12595.1572	-12598.6586	-12608.3643	-12615.4985	-12622.6437	-12630.8502	-12637.1638	-12644.4074	-12653.7848	-12659.8795	-12665.6569	-12670.6684	-12673.6009	-12674.9358	-12643.5211	-12532.4044	-12469.6407	-12562.4185	-12643.3461	-12691.7210	-12717.1066	-12735.5221	-12748.8823	-12758.9272	-12766.6523	-12775.6138	-12784.2581	-12790.5279	-12796.1740	-12807.4115	-12813.9986	-12820.9797	-12827.6215	-12832.8299	-12838.4541	-12841.9994	-12842.8091	-12843.1921	-12842.7325	-12842.5902	-12846.5622	-12859.9991	-12874.7052	-12889.8053	-12901.2726	-12913.0900	-12922.0625	-12930.4770	-12937.7425	-12944.5156	-12954.4948	-12959.5610	-12964.5287	-12972.4617	-12978.9394	-12984.4433	-12992.1793	-13001.3269	-13007.8265	-13017.6634	-13022.5873
-12088.3532	-12097.3914	-12103.2016	-12113.0604	-12119.9649	-12127.2742	-12134.2771	-12142.7134	-12150.7230	-12156.6099	-12164.9368	-12175.0801	-12182.2690	-12188.5826	-12195.7497	-12205.8930	-12212.6114	-12219.3079	-12222.1310	-12226.2780	-12222.3936	-12152.5394	-12084.3594	-12050.2529	-12164.9258	-12227.9850	-12259.0824	-12278.9313	-12295.8587	-12308.5843	-12317.5130	-12326.5731	-12334.5827	-12343.1831	-12350.1423	-12356.9702	-12364.9250	-12371.1948	-12377.3990	-12385.4852	-12392.2912	-12396.9744	-12402.5986	-12402.9925	-12401.8764	-12400.6728	-12404.8745	-12412.5012	-12424.1545	-12437.3616	-12453.1619	-12465.3623	-12472.2230	-12485.1565	-12495.7594	-12501.2085	-12507.6644	-12514.7658	-12522.4033	-12529.2312	-12534.8007	-12539.2541	-12548.8722	-12557.6040	-12564.3552	-12573.1855	-12582.1580	-12589.1281	-12597.0830	-12605.2239	-12612.9928	-12618.9781	-12626.1014	-12632.3164	-12641.4968	-12648.4560	-12654.9337	-12660.4923	-12665.5585	-12668.1299	-12666.0509	-12551.3670	-12211.8673	-12041.0178	-12139.9779	-12284.2601	-12429.1222	-12573.8967	-12703.1664	-12747.3614	-12758.4676	-12765.9410	-12772.9768	-12779.7499	-12787.1687	-12794.5764	-12801.6560	-12810.7598	-12817.2812	-12820.7280	-12828.3765	-12834.9089	-12839.6031	-12841.3866	-12844.8990	-12847.4266	-12852.7992	-12857.8982	-12867.5491	-12877.8565	-12889.3785	-12898.6793	-12908.5600	-12915.4863	-12925.0825	-12930.5426	-12936.7687	-12944.8986	-12949.1223	-12954.6808	-12957.5258	-12964.6928	-12976.1492	-12981.6312	-12990.3520	-13000.4625	-13009.7195	-13018.8014
-12097.2820	-12106.4842	-12110.2921	-12123.0068	-12132.5045	-12137.5488	-12145.8757	-12156.6865	-12163.4815	-12171.5786	-12178.4612	-12185.8033	-12193.2439	-12200.1703	-12207.5671	-12215.8940	-12221.0258	-12226.8689	-12229.8999	-12232.0336	-12215.2375	-12025.6223	-11677.8942	-11578.0806	-11690.9372	-11836.0619	-11980.8693	-12125.8517	-12264.0720	-12322.2838	-12334.4514	-12343.6099	-12350.0110	-12358.0206	-12365.1986	-12370.2319	-12379.3905	-12385.4524	-12390.9234	-12397.6965	-12402.1937	-12410.5972	-12417.1297	-12418.0926	-12420.8609	-12425.9161	-12431.6826	-12436.4971	-12448.7085	-12460.2086	-12467.6711	-12478.1536	-12487.1917	-12495.5187	-12504.1301	-12510.2029	-12514.6454	-12521.3310	-12528.8482	-12532.8968	-12537.2846	-12545.5896	-12552.1220	-12559.0155	-12570.5266	-12579.1380	-12586.8850	-12595.2228	-12603.5935	-12608.0907	-12618.0918	-12626.2983	-12632.5243	-12638.2142	-12645.5454	-12652.2310	-12658.2054	-12663.6327	-12668.5456	-12670.4058	-12658.7853	-12522.5784	-12182.9584	-11947.1239	-11926.9248	-12043.3813	-12189.5017	-12333.8714	-12479.0071	-12622.7203	-12741.4417	-12770.9525	-12777.1238	-12784.4112	-12789.9042	-12797.0056	-12805.5951	-12811.1756	-12816.6466	-12821.5486	-12829.5801	-12837.2177	-12840.5550	-12845.8948	-12849.6041	-12853.7074	-12858.8830	-12864.3978	-12872.8013	-12883.1744	-12892.6831	-12902.9139	-12910.3983	-12918.2328	-12925.6515	-12931.7134	-12938.1911	-12941.5832	-12947.6341	-12949.1770	-12948.6627	-12958.2261	-12961.4759	-12975.6896	-12988.0432	-12997.9130	-13009.8508	-13016.1315
-12111.7474	-12119.6804	-12131.1258	-12142.7244	-12152.4409	-12163.6566	-12172.3665	-12181.5906	-12192.0184	-12198.5071	-12204.7112	-12212.1518	-12218.6295	-12226.5078	-12232.7339	-12241.3343	-12248.4576	-12252.6922	-12253.4691	-12248.6983	-12179.3803	-11953.8314	-11649.8716	-11572.7519	-11630.6245	-11773.9000	-11917.9305	-12062.6503	-12205.9805	-12326.8029	-12358.9507	-12365.1548	-12372.3438	-12379.9047	-12384.6645	-12391.2407	-12397.1932	-12406.2204	-12413.3546	-12417.7971	-12424.7782	-12431.7811	-12438.7293	-12443.0733	-12449.2337	-12454.8251	-12466.0079	-12471.6540	-12478.2849	-12488.0233	-12497.4007	-12503.7909	-12509.0321	-12517.3262	-12522.2611	-12525.5765	-12531.3211	-12530.7740	-12532.3169	-12536.3326	-12536.8359	-12545.7099	-12559.0374	-12573.2402	-12585.8674	-12597.3784	-12604.8956	-12614.9951	-12622.9282	-12630.4344	-12639.4179	-12645.9284	-12652.8766	-12656.4328	-12665.0114	-12672.8897	-12677.8683	-12684.9478	-12687.7490	-12687.7271	-12674.0605	-12615.1155	-12507.4565	-12294.4143	-12167.7598	-12243.2492	-12385.8572	-12530.5771	-12672.4739	-12763.4134	-12778.5572	-12786.4684	-12793.2634	-12798.8876	-12808.5057	-12814.8740	-12819.6010	-12828.8470	-12833.3223	-12839.1216	-12846.2121	-12853.9591	-12859.7255	-12865.6014	-12871.4992	-12878.8304	-12883.8419	-12890.7354	-12898.8653	-12908.0020	-12914.9392	-12919.8960	-12928.9123	-12935.7839	-12941.2330	-12945.0518	-12948.6517	-12951.2888	-12948.7502	-12943.6293	-12932.2605	-12938.7163	-12961.5962	-12979.1692	-12995.0899	-13011.7437	-13022.7296	-13034.8425
-12088.7143	-12097.1507	-12113.9686	-12130.3817	-12140.2405	-12151.2154	-12162.1028	-12173.7233	-12181.6672	-12186.2629	-12195.4433	-12203.5514	-12209.0880	-12217.4916	-12225.5012	-12231.5849	-12239.8353	-12244.2230	-12245.8315	-12244.4091	-12201.0456	-12142.4946	-12029.2989	-11801.6600	-11819.8238	-11948.7433	-12093.4851	-12234.8129	-12317.2285	-12335.2064	-12344.2008	-12351.2693	-12358.8741	-12366.1834	-12373.7225	-12379.4233	-12387.2578	-12394.5890	-12399.9506	-12407.5663	-12414.8209	-12422.2396	-12428.3343	-12434.0461	-12441.3007	-12450.9078	-12458.4032	-12464.3228	-12471.1069	-12478.9961	-12487.9358	-12494.1618	-12499.3484	-12506.4170	-12512.7743	-12516.7244	-12519.7882	-12516.7791	-12514.8095	-12505.2790	-12492.5862	-12504.2067	-12532.5357	-12553.7195	-12571.9709	-12586.7865	-12593.3408	-12605.8148	-12616.4067	-12621.4181	-12628.5305	-12639.2100	-12644.5716	-12650.9727	-12656.8814	-12664.6284	-12672.3097	-12677.6823	-12679.6519	-12683.4269	-12682.7047	-12677.7479	-12651.3338	-12588.4606	-12564.6835	-12560.4161	-12620.4115	-12715.7826	-12749.9218	-12763.0414	-12769.5519	-12773.5786	-12783.7219	-12791.8956	-12797.3120	-12804.9276	-12810.2455	-12816.5372	-12825.1048	-12830.0069	-12836.8785	-12846.0698	-12853.2697	-12860.4477	-12866.2142	-12874.8694	-12880.5264	-12888.2843	-12896.1079	-12904.0300	-12909.9715	-12917.5106	-12924.5354	-12929.5469	-12935.4228	-12940.9048	-12942.1631	-12941.3424	-12913.6918	-12842.8419	-12798.7454	-12763.5775	-12875.9745	-12957.8978	-12988.3605	-13004.3688	-13019.4579	-13030.3671
-12042.5825	-12064.8278	-12079.2932	-12101.7901	-12120.1071	-12131.1696	-12143.4903	-12153.8962	-12162.8469	-12170.5391	-12178.5159	-12184.9827	-12192.3357	-12199.3058	-12206.1227	-12214.3731	-12221.8903	-12225.3808	-12229.1777	-12231.0926	-12230.8299	-12222.6890	-12187.4446	-12126.2456	-12170.6048	-12161.9387	-12238.1502	-12290.8691	-12305.0938	-12315.3793	-12325.4351	-12331.2563	-12339.7802	-12348.9168	-12354.4425	-12361.8613	-12367.7919	-12375.3419	-12383.6688	-12387.7502	-12397.4449	-12406.3845	-12413.3218	-12414.6020	-12409.5249	-12430.5337	-12445.5462	-12450.9625	-12457.9326	-12466.9380	-12475.1117	-12481.0532	-12486.8963	-12492.9692	-12499.0858	-12502.6201	-12503.0030	-12494.2932	-12449.3103	-12339.1346	-12215.9159	-12328.4004	-12466.0736	-12534.9648	-12555.7657	-12571.9272	-12585.8455	-12598.0349	-12605.3114	-12613.9994	-12621.9981	-12627.7098	-12633.8921	-12642.0658	-12650.6663	-12656.5313	-12664.2454	-12669.7055	-12672.1346	-12677.1242	-12680.3084	-12679.7722	-12680.3850	-12683.3722	-12685.5934	-12706.2301	-12722.9387	-12732.9397	-12744.8666	-12753.8063	-12759.2664	-12767.2869	-12774.9464	-12781.6210	-12788.3066	-12796.2615	-12801.5356	-12806.5580	-12814.4691	-12819.7213	-12828.6610	-12837.9070	-12846.0151	-12853.5104	-12860.5571	-12868.6433	-12874.9131	-12883.3713	-12892.6065	-12900.0252	-12907.1485	-12914.1076	-12921.0011	-12926.3518	-12932.2386	-12935.5869	-12936.6264	-12928.7591	-12773.4035	-12555.2186	-12316.7690	-12351.0724	-12495.5734	-12640.5558	-12785.1115	-12927.0412	-13012.6410	-13029.9842
-11878.0794	-12011.5180	-12079.1509	-12114.5923	-12131.1805	-12145.0988	-12159.8816	-12167.2784	-12175.6928	-12184.3043	-12190.2896	-12197.6208	-12204.0875	-12212.0862	-12218.6514	-12225.5121	-12232.4713	-12238.1283	-12239.8572	-12243.4243	-12245.8972	-12245.5251	-12244.7373	-12246.4552	-12260.3188	-12274.0292	-12291.4381	-12305.4439	-12316.3094	-12327.7220	-12335.5237	-12342.9205	-12349.2013	-12356.3574	-12363.6010	-12368.2952	-12373.4708	-12379.0513	-12389.0304	-12398.1999	-12405.0715	-12413.2562	-12423.2791	-12432.7112	-12437.9415	-12444.8459	-12453.1072	-12458.9831	-12466.2814	-12473.7987	-12480.7797	-12488.6580	-12494.2056	-12499.6110	-12505.0383	-12504.7209	-12502.4559	-12478.5147	-12278.9204	-11906.1568	-11808.7286	-11944.1258	-12089.5569	-12234.5065	-12379.2373	-12519.4271	-12594.7085	-12607.0512	-12614.0760	-12622.5671	-12630.7955	-12636.5839	-12644.5497	-12651.5198	-12657.1440	-12663.9500	-12670.1651	-12676.5443	-12679.5971	-12684.5430	-12688.0225	-12688.3508	-12693.5811	-12697.9798	-12707.4228	-12719.0543	-12728.8912	-12742.4703	-12751.7929	-12759.3867	-12766.6632	-12772.0139	-12780.9754	-12786.4574	-12792.8038	-12794.6093	-12799.8177	-12806.7440	-12814.2175	-12822.8507	-12831.2761	-12842.5465	-12852.2083	-12861.3997	-12865.8750	-12875.9198	-12883.6777	-12888.7330	-12896.7316	-12906.2403	-12913.6043	-12918.6595	-12923.9446	-12931.4399	-12937.5565	-12939.2635	-12933.5955	-12914.7751	-12760.5028	-12443.7080	-12246.3239	-12201.9866	-12339.6926	-12484.8939	-12629.4825	-12774.2351	-12916.5149	-13020.6615
-11403.7406	-11546.4033	-11691.2326	-11835.6898	-11980.5082	-12120.8731	-12192.7297	-12202.0414	-12208.2127	-12215.1718	-12220.8289	-12227.5254	-12233.7187	-12240.9404	-12246.2036	-12254.3226	-12260.5486	-12265.7352	-12269.8822	-12275.6924	-12279.8942	-12283.1987	-12286.3391	-12293.1450	-12301.5923	-12311.2761	-12323.3452	-12332.3067	-12342.1327	-12351.1599	-12361.3142	-12365.8442	-12371.1730	-12377.4099	-12377.1692	-12381.9837	-12387.1265	-12396.7555	-12403.9882	-12411.5930	-12422.1849	-12431.4857	-12438.8934	-12447.8222	-12455.2956	-12461.3137	-12472.3215	-12478.3068	-12483.9420	-12489.3692	-12497.2475	-12503.4079	-12508.7914	-12514.7658	-12518.3110	-12519.8101	-12512.8618	-12466.7082	-12240.8857	-11912.2953	-11729.1359	-11783.7150	-11931.2141	-12076.6671	-12220.8836	-12365.7895	-12507.1939	-12609.8852	-12628.9135	-12636.4307	-12643.2585	-12647.9636	-12654.5945	-12660.0437	-12668.0314	-12673.0319	-12678.4045	-12687.4536	-12688.8104	-12695.0364	-12701.1968	-12705.7049	-12711.6465	-12715.3449	-12727.2936	-12734.2966	-12741.1463	-12751.4866	-12758.1722	-12766.1708	-12773.3926	-12777.9992	-12784.6739	-12787.3328	-12788.4160	-12792.4865	-12793.1977	-12799.2378	-12807.4881	-12817.7736	-12830.9151	-12843.5313	-12852.2412	-12861.2355	-12868.9278	-12875.8432	-12882.9337	-12892.9347	-12898.3729	-12906.2731	-12913.5715	-12920.4431	-12923.5506	-12930.4441	-12935.2368	-12935.8824	-12934.0003	-12923.6929	-12867.8117	-12730.9264	-12535.1399	-12357.5720	-12444.3535	-12588.5044	-12733.0492	-12876.3028	-12997.9677	-13033.8248
-11394.5602	-11492.6340	-11636.1064	-11778.9661	-11923.8501	-12066.5785	-12175.4302	-12199.5794	-12207.4467	-12211.3859	-12218.6733	-12222.6890	-12230.6549	-12238.4894	-12242.9538	-12249.1360	-12256.6970	-12263.8531	-12268.7114	-12273.5478	-12279.2924	-12284.7415	-12290.2892	-12296.1322	-12304.6452	-12313.5958	-12322.2619	-12330.5341	-12337.8653	-12345.2950	-12353.9939	-12359.1039	-12362.2552	-12365.0126	-12366.5226	-12369.8161	-12370.7681	-12375.4404	-12388.4067	-12401.5700	-12411.6367	-12422.5132	-12436.2345	-12443.9268	-12452.0458	-12459.8147	-12467.3647	-12474.0394	-12480.7797	-12487.7170	-12494.4463	-12501.2523	-12506.6796	-12513.0588	-12518.8143	-12519.1098	-12515.5098	-12490.6166	-12403.7366	-12284.4461	-12033.5991	-11945.3185	-12048.2177	-12192.4780	-12337.2635	-12479.6417	-12590.4083	-12617.6541	-12624.9743	-12629.5043	-12637.4155	-12642.6348	-12649.6049	-12655.9951	-12660.5908	-12666.9590	-12674.8045	-12681.5777	-12687.2128	-12691.5897	-12698.7895	-12705.8691	-12711.2635	-12718.5400	-12725.0724	-12733.0273	-12740.0193	-12747.1863	-12754.9442	-12761.2031	-12768.4796	-12774.1148	-12776.7190	-12779.7062	-12778.7761	-12778.1196	-12767.7902	-12756.1260	-12781.8070	-12802.6626	-12821.1000	-12834.5697	-12847.4704	-12855.7426	-12864.4525	-12873.4031	-12881.6425	-12888.9846	-12896.2502	-12902.2027	-12910.6390	-12916.7884	-12921.3732	-12928.1135	-12930.7286	-12935.4118	-12936.5498	-12930.7615	-12920.2790	-12910.7812	-12844.9209	-12754.1345	-12790.2653	-12784.3347	-12912.8493	-12995.5932	-13013.7352	-13026.8766
-11616.2138	-11628.4142	-11743.3716	-11887.7850	-12030.8745	-12143.4794	-12170.3969	-12176.1634	-12187.1492	-12194.4038	-12198.4195	-12205.4225	-12212.2503	-12220.4022	-12226.0045	-12231.1691	-12239.6711	-12246.2036	-12253.7536	-12258.3274	-12265.7242	-12272.0378	-12278.4717	-12285.4418	-12293.2654	-12302.1504	-12308.8907	-12315.0073	-12323.4218	-12329.8666	-12337.4057	-12341.5856	-12345.3716	-12347.3192	-12343.1503	-12339.5504	-12322.1525	-12321.0802	-12355.7884	-12375.3747	-12391.2626	-12404.4587	-12417.7862	-12430.1617	-12439.7032	-12447.3845	-12457.2652	-12463.0207	-12468.1744	-12476.2387	-12481.7973	-12488.8331	-12495.9563	-12500.7927	-12505.2024	-12507.5987	-12508.0255	-12503.2219	-12487.0604	-12450.5358	-12415.7838	-12381.2287	-12345.4919	-12412.7966	-12538.0396	-12579.3131	-12592.5858	-12600.4860	-12607.7515	-12614.3824	-12621.1446	-12628.2132	-12634.3079	-12641.4312	-12648.7514	-12653.5769	-12661.7069	-12669.4538	-12675.5814	-12681.3041	-12689.3356	-12697.3014	-12703.4727	-12709.0751	-12716.2750	-12724.0438	-12729.7337	-12737.2400	-12746.8362	-12752.7558	-12760.3059	-12762.9101	-12766.4553	-12767.4948	-12758.8834	-12717.1832	-12673.8963	-12591.8527	-12663.9609	-12761.6080	-12800.7149	-12822.4021	-12838.6183	-12848.2801	-12859.8240	-12866.6190	-12873.7970	-12884.2795	-12888.9409	-12895.4733	-12902.8373	-12908.8883	-12914.9721	-12922.4674	-12925.8594	-12930.3894	-12931.9979	-12933.0265	-12932.9389	-12931.7681	-12932.6763	-12928.9123	-12947.9405	-12968.4350	-12984.8919	-12998.5257	-13005.9226	-13018.0026
-11897.8518	-11903.4650	-11933.0196	-12043.1625	-12110.0404	-12126.9787	-12137.5707	-12145.3067	-12156.7193	-12162.7484	-12169.9701	-12176.6776	-12184.4027	-12192.6421	-12199.0432	-12205.2802	-12212.4910	-12221.0040	-12229.4184	-12236.3010	-12241.6954	-12250.2084	-12257.8569	-12265.9540	-12272.7928	-12280.7039	-12287.8053	-12292.5323	-12298.5176	-12307.6214	-12313.9459	-12317.7428	-12322.0212	-12319.8656	-12301.7346	-12238.1611	-12155.8986	-12141.9256	-12266.2932	-12331.8581	-12366.3147	-12382.7497	-12398.6704	-12411.3085	-12420.1825	-12429.4614	-12438.0947	-12445.2398	-12451.2908	-12458.6986	-12465.5374	-12472.8905	-12480.0903	-12486.4586	-12490.9668	-12492.6409	-12495.1248	-12495.2013	-12493.0786	-12492.3345	-12494.0196	-12501.7666	-12520.8058	-12539.1775	-12552.3627	-12565.3510	-12574.4548	-12584.3355	-12592.0934	-12598.4070	-12606.0336	-12611.5265	-12619.2297	-12624.4163	-12630.5438	-12638.2033	-12646.4098	-12656.2030	-12661.7725	-12669.3882	-12677.3978	-12684.5320	-12692.1258	-12698.3409	-12707.3353	-12714.7650	-12721.9430	-12729.6899	-12734.6467	-12743.6630	-12751.6507	-12751.8914	-12756.3777	-12755.2616	-12739.9208	-12631.2004	-12328.1925	-12151.3686	-12236.1368	-12381.6445	-12526.6489	-12671.3140	-12799.9490	-12842.1526	-12856.7821	-12860.0429	-12866.9692	-12876.6748	-12882.2005	-12888.6783	-12895.8672	-12902.0276	-12910.6280	-12915.1471	-12921.1434	-12926.9099	-12926.9536	-12931.9323	-12936.5936	-12938.3224	-12942.1631	-12950.0742	-12958.6856	-12973.0963	-12984.3776	-12993.9629	-13001.4582	-13012.6519
-12049.9356	-12066.5676	-12077.5096	-12097.9057	-12112.0538	-12121.8250	-12130.1191	-12139.4527	-12148.3158	-12156.5114	-12162.8687	-12168.6790	-12176.2071	-12182.6082	-12190.4537	-12196.6797	-12205.0176	-12215.1500	-12223.0392	-12230.1625	-12238.1502	-12249.1251	-12256.8174	-12263.3717	-12269.1163	-12276.6772	-12283.8005	-12291.5037	-12298.6927	-12303.5838	-12310.8274	-12315.2918	-12314.8760	-12312.7314	-12251.5652	-12104.0551	-11802.1086	-11606.1252	-11743.4701	-11888.4635	-12033.8617	-12179.6867	-12322.1634	-12413.8908	-12428.2687	-12435.4905	-12441.9791	-12449.6823	-12456.3242	-12461.9156	-12468.3386	-12477.6503	-12484.5657	-12488.8878	-12494.6105	-12498.4074	-12502.8608	-12505.5525	-12507.7410	-12512.5445	-12518.3767	-12525.3686	-12537.1751	-12548.1281	-12558.5341	-12569.1698	-12575.6037	-12583.2522	-12592.5311	-12599.0854	-12602.3899	-12610.3119	-12612.3472	-12612.9380	-12622.5780	-12630.7080	-12640.7966	-12652.5374	-12661.2473	-12668.3159	-12675.1984	-12683.2627	-12690.1234	-12697.9689	-12704.3809	-12712.7407	-12717.9710	-12726.9873	-12733.5087	-12740.8946	-12748.5978	-12749.7905	-12749.6373	-12748.0617	-12709.6222	-12560.8538	-12228.0835	-12035.4702	-12099.4704	-12232.6901	-12375.8233	-12520.5651	-12665.0770	-12799.2706	-12850.7421	-12858.2812	-12864.1352	-12870.0220	-12876.5873	-12884.4327	-12891.7749	-12897.7492	-12905.7369	-12912.6523	-12915.6176	-12922.2485	-12928.2229	-12932.4684	-12937.1079	-12943.0166	-12949.7678	-12954.4510	-12962.5591	-12972.5602	-12980.3619	-12989.8596	-12996.6327	-13005.2332
-12077.7941	-12087.7076	-12096.1112	-12111.0690	-12121.6718	-12130.6990	-12139.0697	-12147.8124	-12154.0713	-12163.9192	-12169.4777	-12171.8631	-12174.9050	-12183.4945	-12191.0008	-12198.0256	-12209.4820	-12220.0958	-12229.6591	-12238.9052	-12246.4224	-12255.8326	-12266.7090	-12270.5825	-12277.9027	-12285.5294	-12292.8277	-12298.9115	-12305.9582	-12311.5277	-12318.0601	-12322.0431	-12321.2443	-12313.2019	-12252.7360	-11997.0963	-11652.4648	-11524.9350	-11638.6778	-11785.9472	-11930.9187	-12076.0872	-12221.1243	-12359.4431	-12426.6383	-12436.6175	-12443.7845	-12449.5620	-12456.2038	-12462.1453	-12467.3538	-12477.3220	-12482.7493	-12488.2422	-12495.7703	-12499.0858	-12504.4146	-12507.3033	-12511.8552	-12518.2235	-12527.2835	-12534.3083	-12541.5301	-12552.1329	-12561.0617	-12568.6992	-12575.3848	-12582.5191	-12589.5877	-12597.6410	-12595.9122	-12599.5449	-12603.3418	-12605.3880	-12609.9399	-12617.9714	-12628.8369	-12645.0640	-12656.6954	-12664.7706	-12674.0057	-12681.2932	-12689.3246	-12696.3932	-12704.2715	-12710.5851	-12719.3825	-12727.6438	-12731.5829	-12737.9840	-12744.7462	-12750.5018	-12750.2939	-12747.0003	-12730.3684	-12651.5307	-12519.9195	-12276.9070	-12139.9998	-12243.0413	-12384.6974	-12529.1327	-12672.9225	-12802.2140	-12846.3106	-12856.7383	-12860.5571	-12865.5577	-12875.0116	-12880.6249	-12885.5816	-12893.7554	-12901.4586	-12907.5424	-12912.2147	-12919.4692	-12925.4874	-12930.2581	-12936.5498	-12944.3515	-12951.4857	-12956.7489	-12963.7737	-12970.6672	-12981.0075	-12988.5903	-12994.9914	-13002.1038
-12074.7413	-12086.8651	-12092.2377	-12103.9785	-12113.0495	-12120.9715	-12129.4188	-12136.8266	-12144.1797	-12147.9437	-12153.3820	-12156.2160	-12156.0299	-12162.0809	-12173.0449	-12182.8927	-12195.6074	-12208.9349	-12219.5377	-12229.3637	-12238.1502	-12247.4728	-12255.3511	-12262.7917	-12271.0311	-12278.0231	-12285.0151	-12293.7250	-12299.3820	-12304.4482	-12311.9435	-12316.9550	-12315.2480	-12308.8360	-12274.7295	-12177.2357	-11947.7914	-11726.4223	-11659.7742	-11784.4591	-11929.2008	-12074.6866	-12219.4611	-12356.1604	-12416.7795	-12426.0475	-12434.7792	-12440.9724	-12447.2204	-12452.2537	-12459.8037	-12466.8833	-12473.3281	-12481.3487	-12486.4915	-12493.4178	-12500.2128	-12505.0164	-12510.2795	-12517.0527	-12524.6793	-12533.2141	-12539.0900	-12546.5087	-12555.2624	-12562.6702	-12569.2245	-12575.4505	-12580.6370	-12582.6613	-12587.6509	-12586.1847	-12579.0723	-12572.1351	-12575.7022	-12584.9154	-12615.2687	-12628.8478	-12645.7861	-12657.3410	-12666.9262	-12674.9577	-12682.3545	-12690.9769	-12700.0369	-12706.7554	-12714.4367	-12719.3497	-12726.6371	-12732.7866	-12739.9098	-12744.1335	-12743.2034	-12743.7505	-12739.7785	-12729.6352	-12688.9636	-12626.2764	-12590.2661	-12544.5063	-12632.4587	-12764.5514	-12816.6247	-12828.6391	-12835.5764	-12845.0632	-12851.7488	-12858.6423	-12866.7394	-12871.9150	-12878.2176	-12885.9974	-12891.2278	-12896.7644	-12905.5728	-12912.7399	-12918.9769	-12926.4941	-12931.1444	-12938.5084	-12946.2883	-12951.2560	-12958.1823	-12964.9992	-12974.8252	-12981.8938	-12988.6669	-12995.2322
-12058.7440	-12069.3468	-12071.5790	-12083.5606	-12091.7781	-12100.3348	-12108.0052	-12112.5899	-12118.8378	-12121.9892	-12124.4511	-12121.8907	-12114.6580	-12114.0233	-12128.7514	-12140.1311	-12163.0548	-12179.4679	-12191.5698	-12203.3763	-12212.6661	-12223.3565	-12233.0840	-12239.8790	-12247.7464	-12253.2065	-12259.2027	-12268.9849	-12277.6948	-12282.0279	-12288.6916	-12293.0247	-12294.5566	-12292.4448	-12286.6126	-12273.1101	-12219.6800	-12142.0897	-12087.2809	-12053.3386	-12163.6784	-12302.2379	-12370.9432	-12384.3144	-12392.4991	-12400.6400	-12408.6824	-12417.6658	-12421.7800	-12428.6954	-12434.8996	-12443.6532	-12448.3474	-12455.7333	-12465.9970	-12470.6911	-12478.6679	-12486.0538	-12492.2360	-12500.7709	-12508.2005	-12514.2187	-12523.3553	-12528.8373	-12537.1204	-12546.1586	-12550.4588	-12555.3280	-12559.9784	-12565.3181	-12564.8695	-12559.2453	-12521.1012	-12452.4288	-12378.2962	-12455.9631	-12563.3267	-12602.0397	-12627.6114	-12640.6871	-12651.1696	-12664.9129	-12671.8064	-12678.1966	-12685.4949	-12693.9203	-12699.8947	-12707.8715	-12713.9771	-12719.6014	-12729.9416	-12732.9835	-12734.9312	-12738.0716	-12738.4327	-12738.0716	-12737.6886	-12733.3884	-12739.7348	-12762.8663	-12777.9117	-12792.8038	-12805.0918	-12816.1651	-12826.2756	-12832.6877	-12839.7015	-12849.1445	-12855.0423	-12858.3797	-12862.1109	-12872.3308	-12880.5483	-12888.4266	-12894.9590	-12901.2835	-12911.8645	-12916.0553	-12924.8637	-12932.2058	-12938.2568	-12945.7412	-12951.2013	-12959.1999	-12969.6277	-12976.7729	-12984.4433	-12989.8705
-12051.8395	-12063.1427	-12070.3097	-12079.2494	-12088.0578	-12094.6121	-12103.6174	-12107.6003	-12111.5176	-12115.2817	-12114.8987	-12100.3020	-12043.5454	-11979.3921	-11973.6256	-12092.4127	-12144.4751	-12165.9653	-12185.4313	-12198.0475	-12210.6746	-12218.8703	-12225.9935	-12235.3381	-12243.2383	-12249.6175	-12258.1304	-12265.5820	-12271.2609	-12278.6906	-12285.4747	-12289.7530	-12291.8101	-12293.7578	-12294.2393	-12292.5761	-12292.1384	-12288.8776	-12302.5552	-12327.6126	-12343.6974	-12356.6966	-12369.4113	-12377.7273	-12386.0979	-12393.6589	-12401.5591	-12408.8356	-12415.1163	-12419.1211	-12425.8833	-12434.9762	-12442.8107	-12451.4549	-12457.8342	-12466.6972	-12474.5865	-12482.3116	-12489.6318	-12498.0463	-12505.8699	-12512.7196	-12517.1183	-12525.2154	-12534.1442	-12540.3812	-12547.9859	-12553.2490	-12556.4660	-12559.2562	-12556.0393	-12532.6670	-12294.2940	-12117.6780	-11946.7847	-12010.2159	-12155.2749	-12300.2464	-12445.1195	-12583.6242	-12647.8432	-12663.9719	-12669.6508	-12674.7936	-12682.7485	-12690.0140	-12697.9579	-12704.7748	-12709.4362	-12716.7345	-12724.2846	-12729.2194	-12735.4345	-12736.7585	-12739.9208	-12743.8490	-12745.9936	-12750.3048	-12761.6517	-12768.5124	-12783.1639	-12793.6354	-12803.1441	-12814.8083	-12820.7389	-12826.8665	-12833.6177	-12840.8942	-12844.1440	-12845.0850	-12851.5956	-12860.5790	-12866.2798	-12878.0207	-12884.4437	-12894.4666	-12903.7674	-12910.4311	-12920.3774	-12927.7415	-12934.0550	-12941.6488	-12946.8025	-12955.1295	-12964.4740	-12971.0173	-12977.0464	-12982.6597
-12071.8088	-12084.9721	-12090.2571	-12097.2054	-12106.3092	-12113.6622	-12121.3326	-12125.7423	-12128.9483	-12129.5830	-12125.0529	-12088.0578	-11878.8125	-11602.6675	-11551.0647	-11686.0898	-11831.4881	-11976.9301	-12120.1290	-12214.0229	-12234.1126	-12240.1745	-12246.4552	-12256.0842	-12262.9559	-12269.3679	-12276.4146	-12282.0936	-12289.3810	-12295.1256	-12301.0890	-12307.0852	-12310.5648	-12314.5477	-12317.8741	-12320.5878	-12324.4394	-12332.9414	-12340.1303	-12351.6085	-12362.4850	-12374.8276	-12384.3034	-12391.8972	-12398.0686	-12406.5049	-12410.1377	-12413.0483	-12419.3837	-12421.7253	-12426.0146	-12435.8078	-12443.5329	-12456.5321	-12464.7933	-12472.1355	-12484.1061	-12493.1661	-12497.7290	-12505.4541	-12516.1007	-12523.0161	-12527.9072	-12535.6542	-12541.8583	-12548.4564	-12554.7700	-12560.6349	-12563.2720	-12565.2197	-12562.2325	-12524.8653	-12313.4207	-11984.3598	-11892.0525	-11970.5181	-12115.8069	-12260.2204	-12405.3013	-12548.1938	-12646.6396	-12666.4995	-12672.8787	-12680.2646	-12684.9916	-12692.1586	-12698.1221	-12704.9827	-12711.1541	-12717.4895	-12723.6937	-12731.6814	-12736.1677	-12740.7196	-12745.5341	-12749.1887	-12755.5023	-12761.3563	-12768.4905	-12778.6229	-12783.6781	-12794.8390	-12802.5751	-12812.8059	-12818.8022	-12823.9231	-12831.3090	-12834.1101	-12836.4408	-12835.1496	-12838.1149	-12845.3367	-12854.9001	-12867.4616	-12876.2590	-12888.8096	-12899.6532	-12907.3892	-12917.4012	-12924.7871	-12932.6654	-12940.0185	-12945.3144	-12953.6960	-12960.0096	-12966.6515	-12972.1881	-12977.4294
-12077.2361	-12087.9921	-12092.6425	-12101.5165	-12109.7340	-12116.5728	-12125.3703	-12131.1914	-12134.2443	-12136.2029	-12124.3855	-12052.9337	-11820.9071	-11513.3911	-11484.2086	-11608.8169	-11754.0292	-11899.5806	-12044.6944	-12178.3627	-12227.2847	-12237.9861	-12246.6303	-12253.3925	-12263.1747	-12267.3327	-12274.8608	-12281.6012	-12285.7810	-12292.2697	-12301.4610	-12305.1047	-12311.2432	-12318.1914	-12322.4041	-12328.8162	-12333.9590	-12339.9224	-12349.1137	-12357.3641	-12365.0235	-12373.6896	-12382.4871	-12391.6784	-12397.2370	-12401.4497	-12409.5687	-12414.4926	-12414.7005	-12415.8166	-12418.9570	-12423.6511	-12435.9172	-12448.0957	-12458.1405	-12468.0650	-12481.0532	-12489.0957	-12496.5910	-12503.4517	-12510.9579	-12519.6350	-12527.5899	-12532.7764	-12540.4796	-12548.4892	-12553.0630	-12559.0593	-12563.7753	-12565.6792	-12561.2805	-12542.1975	-12462.6706	-12318.0711	-12119.1989	-11999.9194	-12131.9027	-12276.6225	-12421.4190	-12562.6373	-12645.3703	-12661.6521	-12669.9572	-12675.7455	-12681.8293	-12689.7514	-12695.5835	-12702.2363	-12710.0052	-12713.2987	-12721.8554	-12729.4055	-12733.6400	-12740.1725	-12746.1687	-12752.0884	-12757.6579	-12763.8949	-12771.6747	-12779.5749	-12786.0526	-12792.9242	-12801.8857	-12810.5737	-12816.3840	-12821.1547	-12827.6215	-12829.6239	-12829.3722	-12824.8860	-12815.9025	-12816.4825	-12835.8499	-12853.5214	-12863.9273	-12874.4754	-12874.7271	-12901.8635	-12915.3003	-12924.2838	-12932.0526	-12937.6550	-12945.7959	-12951.7593	-12959.7798	-12967.4502	-12971.9146	-12978.0969
-12068.3183	-12078.6148	-12085.3004	-12094.4698	-12101.7244	-12109.2088	-12114.5376	-12120.2603	-12122.6019	-12125.0092	-12119.3083	-12071.3602	-11976.8754	-11865.9775	-11630.0774	-11686.1555	-11826.0280	-11971.1636	-12113.5638	-12202.4462	-12219.8879	-12229.1120	-12235.4694	-12242.5708	-12249.4534	-12256.5329	-12262.7808	-12268.7880	-12273.9964	-12282.4984	-12289.8405	-12297.3687	-12304.4701	-12310.0505	-12316.9988	-12323.4765	-12330.4794	-12337.3182	-12344.5071	-12352.0134	-12358.7756	-12365.6034	-12375.0355	-12380.6816	-12388.5709	-12394.1513	-12397.1057	-12398.4953	-12397.8607	-12391.6675	-12377.8367	-12387.3344	-12410.0392	-12426.5508	-12445.1523	-12456.0068	-12470.9975	-12482.5851	-12491.1090	-12496.3284	-12505.5525	-12514.9518	-12520.3353	-12526.7036	-12534.1551	-12542.4602	-12548.2923	-12553.0302	-12558.4575	-12559.8690	-12559.3438	-12553.5664	-12542.0115	-12508.7039	-12439.9329	-12429.6036	-12436.0047	-12509.4151	-12612.3034	-12631.5943	-12640.6543	-12650.5788	-12659.9889	-12666.8168	-12673.4149	-12681.3150	-12687.8912	-12695.4194	-12699.2491	-12704.6873	-12714.9072	-12721.1661	-12724.0876	-12732.8960	-12738.8703	-12747.5365	-12753.8610	-12759.2445	-12767.7027	-12776.5001	-12783.7657	-12787.5954	-12795.3424	-12803.7459	-12808.4291	-12811.7008	-12815.6290	-12818.5505	-12812.0181	-12786.3480	-12719.4153	-12710.2678	-12745.2715	-12807.4881	-12845.7744	-12871.2366	-12886.6540	-12898.5808	-12908.3302	-12918.1671	-12923.8789	-12931.5602	-12937.9832	-12944.4062	-12952.9301	-12960.4582	-12964.2114	-12970.7329
-12043.0749	-12054.5860	-12061.4248	-12071.9073	-12076.8093	-12082.2475	-12091.1106	-12096.3191	-12099.8862	-12103.1907	-12100.3457	-12096.0674	-12083.8341	-12033.5553	-11956.7201	-11999.3614	-12013.6517	-12129.6814	-12170.6048	-12181.7548	-12193.6707	-12201.3411	-12210.0291	-12218.7608	-12224.2428	-12231.6068	-12238.4456	-12245.4048	-12252.7141	-12259.8264	-12266.0962	-12275.9769	-12284.0741	-12288.4181	-12295.4319	-12305.1813	-12312.2390	-12319.7890	-12325.1725	-12333.6635	-12342.3734	-12347.4834	-12354.4972	-12363.6448	-12369.0393	-12373.7553	-12371.7201	-12373.4817	-12365.5816	-12300.7170	-12198.3758	-12209.0552	-12329.8448	-12382.8372	-12415.5868	-12436.0485	-12449.9668	-12464.7933	-12474.2910	-12480.9876	-12491.9625	-12498.5059	-12503.5611	-12510.9142	-12517.9061	-12526.2549	-12533.5533	-12539.6590	-12543.6419	-12545.5239	-12546.9902	-12546.2133	-12545.5568	-12545.9835	-12545.5349	-12549.7913	-12572.5618	-12593.6472	-12608.3314	-12616.8444	-12627.5785	-12635.4131	-12642.9850	-12650.4146	-12657.2097	-12665.9633	-12671.2593	-12673.5462	-12679.5315	-12691.7319	-12698.6801	-12705.7596	-12712.0732	-12718.3430	-12729.3507	-12735.5002	-12741.9779	-12750.4142	-12757.7017	-12764.9562	-12772.7361	-12778.3712	-12786.5012	-12794.1497	-12799.5441	-12804.6650	-12807.0066	-12805.4966	-12792.1364	-12700.2558	-12454.2014	-12231.4646	-12245.2407	-12390.3654	-12535.8730	-12681.4026	-12821.5268	-12889.0722	-12903.2422	-12912.1599	-12919.4145	-12926.4831	-12932.3918	-12938.0379	-12947.1089	-12954.7246	-12960.4145	-12966.8922
-12029.0472	-12041.7947	-12047.5065	-12055.7568	-12063.2849	-12069.3797	-12078.5820	-12083.9217	-12088.4189	-12091.8328	-12093.6820	-12094.2838	-12092.8285	-12092.4127	-12094.6668	-12116.6932	-12133.5659	-12149.5304	-12161.9824	-12174.0406	-12183.4179	-12189.7534	-12195.8044	-12206.7355	-12212.4254	-12219.3189	-12227.4379	-12231.4646	-12238.2158	-12247.1665	-12254.3116	-12265.4507	-12272.5411	-12280.2334	-12287.8381	-12296.4496	-12304.3278	-12309.9411	-12317.4146	-12325.0193	-12332.8101	-12341.8920	-12349.4201	-12355.8541	-12359.7494	-12364.9360	-12364.0934	-12358.6552	-12315.4559	-12104.8101	-11842.3754	-11777.9048	-11909.6364	-12055.3410	-12201.2973	-12345.4044	-12443.9268	-12465.2091	-12473.0984	-12481.3377	-12489.1832	-12496.2299	-12501.6681	-12507.8285	-12516.1773	-12523.6288	-12531.2883	-12535.2822	-12541.7270	-12544.4297	-12547.7233	-12551.5421	-12553.0740	-12557.6040	-12565.9090	-12574.0499	-12585.4953	-12594.8617	-12604.8081	-12613.8791	-12624.7336	-12632.4915	-12641.3327	-12646.1910	-12649.8675	-12655.6668	-12661.2363	-12664.6722	-12673.7541	-12681.6871	-12690.8018	-12699.5008	-12708.5608	-12717.0956	-12724.7660	-12734.7452	-12741.3761	-12746.4532	-12754.2549	-12764.8140	-12768.3373	-12775.3184	-12783.5249	-12789.2258	-12795.6706	-12799.2706	-12801.9842	-12799.6973	-12760.7217	-12618.0699	-12271.6329	-12057.3543	-12092.9380	-12237.7891	-12383.3515	-12528.9467	-12674.3997	-12815.4758	-12896.0313	-12909.1399	-12915.9131	-12923.9883	-12929.5907	-12935.0617	-12942.5351	-12948.7831	-12955.5890	-12963.4564
-12023.3464	-12035.7985	-12040.0768	-12049.5198	-12056.5556	-12062.5299	-12073.6143	-12078.9759	-12082.7509	-12090.8699	-12094.4589	-12099.0655	-12102.9062	-12108.7164	-12115.4677	-12127.0991	-12137.1111	-12146.1164	-12158.0323	-12167.9349	-12174.2375	-12183.0787	-12191.9746	-12196.7235	-12202.6651	-12208.6175	-12214.6904	-12219.1766	-12227.1862	-12233.6092	-12242.0456	-12251.8278	-12262.3541	-12270.2980	-12278.8438	-12287.5646	-12295.8587	-12303.9011	-12310.7180	-12319.4060	-12326.4089	-12334.0903	-12340.2397	-12346.1266	-12352.9106	-12358.1628	-12360.2747	-12359.7385	-12309.8974	-12020.5124	-11668.6263	-11559.4901	-11665.7813	-11814.8233	-11960.7687	-12106.0137	-12251.7184	-12391.6675	-12460.4384	-12470.0127	-12475.5494	-12482.4210	-12488.6252	-12493.6038	-12500.9022	-12508.2881	-12514.8095	-12520.7730	-12526.2987	-12533.1594	-12538.4882	-12544.2218	-12548.2923	-12553.0630	-12560.8647	-12567.9880	-12575.5162	-12586.6661	-12594.3146	-12601.8647	-12608.3752	-12615.9909	-12624.4163	-12629.1870	-12631.7584	-12637.1638	-12640.7747	-12642.6895	-12644.6700	-12652.3733	-12664.5627	-12674.8702	-12688.5040	-12696.6558	-12703.8557	-12713.4191	-12724.3283	-12728.9021	-12734.3950	-12745.2933	-12751.3443	-12757.9205	-12763.7307	-12770.1428	-12777.0035	-12782.5730	-12785.5383	-12786.1292	-12777.2223	-12678.4701	-12525.4452	-12317.1738	-12207.9391	-12323.5968	-12468.7106	-12614.4809	-12758.2269	-12858.7626	-12875.6572	-12882.6601	-12890.2977	-12898.0666	-12904.2598	-12909.8074	-12917.3574	-12925.3123	-12930.9037	-12936.7030
-11981.0553	-11991.9755	-11998.6611	-12008.6293	-12015.2055	-12022.7117	-12031.2028	-12038.4683	-12043.9941	-12049.9903	-12055.4395	-12060.9543	-12065.0466	-12068.3073	-12075.5510	-12084.9831	-12092.7519	-12102.6107	-12112.1194	-12121.8907	-12134.0145	-12140.7548	-12147.6374	-12154.6512	-12160.4834	-12166.1732	-12171.5896	-12176.6557	-12185.6939	-12190.2677	-12197.6317	-12208.0376	-12215.5548	-12226.5078	-12234.1782	-12243.9823	-12255.6794	-12259.8264	-12267.0482	-12276.0098	-12282.3562	-12290.9676	-12296.8872	-12302.1175	-12309.7879	-12316.5939	-12321.0254	-12323.9360	-12310.7180	-12203.5404	-11988.2770	-11828.7745	-11735.4276	-11852.7266	-11998.2015	-12144.0703	-12288.7682	-12395.0595	-12415.4665	-12426.1897	-12435.5233	-12441.9135	-12450.2294	-12457.7466	-12462.7143	-12471.0413	-12478.0989	-12483.6137	-12492.7503	-12498.6153	-12506.3623	-12512.7853	-12516.5712	-12525.1279	-12533.6299	-12540.7532	-12548.2813	-12558.2714	-12568.8087	-12578.4924	-12583.5586	-12588.8217	-12603.5826	-12619.7221	-12624.3506	-12624.2412	-12623.4096	-12625.1056	-12620.4771	-12626.1889	-12646.6287	-12657.4504	-12674.4763	-12687.2347	-12697.0279	-12707.0617	-12715.6950	-12722.0196	-12728.1909	-12738.8922	-12745.0636	-12750.3376	-12758.4348	-12765.7112	-12772.8892	-12777.3317	-12778.5244	-12780.7457	-12779.7062	-12771.9373	-12738.1263	-12650.6882	-12526.8130	-12555.9955	-12668.5347	-12799.2487	-12847.4814	-12860.3273	-12867.8336	-12874.3004	-12881.9817	-12891.5451	-12898.3510	-12901.8853	-12910.4967	-12918.0358	-12924.6558	-12931.6915
-11996.9979	-12008.8700	-12015.5666	-12024.7141	-12032.3845	-12038.3480	-12046.1606	-12054.2030	-12061.3373	-12068.8435	-12074.7085	-12080.3217	-12088.7034	-12096.9318	-12104.9633	-12112.2069	-12120.1181	-12128.3246	-12134.8680	-12143.4028	-12151.7406	-12157.2117	-12165.2432	-12169.3246	-12171.5020	-12170.9330	-12171.7428	-12168.2851	-12172.8588	-12190.1583	-12203.9124	-12217.3821	-12231.8585	-12244.6060	-12253.7208	-12262.9340	-12271.7971	-12281.7215	-12286.8424	-12298.4848	-12307.9934	-12314.1757	-12317.2395	-12321.6929	-12329.8119	-12336.9024	-12339.7036	-12340.8525	-12337.4495	-12324.6582	-12274.1496	-12217.4150	-12140.8642	-12151.8501	-12283.2972	-12388.8772	-12411.6586	-12422.2287	-12433.6194	-12439.1670	-12446.9249	-12456.1381	-12463.6991	-12469.2249	-12473.7987	-12482.4648	-12487.8483	-12497.8056	-12506.3294	-12512.1506	-12517.8296	-12526.9990	-12533.4986	-12538.9915	-12547.7342	-12555.5906	-12561.2586	-12567.4518	-12576.0304	-12586.2832	-12591.2399	-12596.5796	-12603.2434	-12609.1630	-12610.8809	-12610.5855	-12586.9834	-12534.4506	-12478.9524	-12530.9382	-12603.8124	-12643.2476	-12659.9452	-12676.3255	-12689.3684	-12697.7610	-12707.1274	-12714.9182	-12720.5424	-12728.3441	-12736.6600	-12741.4964	-12748.3243	-12758.5989	-12764.3982	-12769.9349	-12773.9178	-12776.7737	-12777.8679	-12777.5834	-12778.0977	-12774.0600	-12765.9629	-12778.1086	-12809.1184	-12829.4050	-12840.7520	-12850.7311	-12859.8787	-12863.8179	-12874.4207	-12883.0650	-12888.6892	-12893.9195	-12900.5504	-12907.5752	-12913.5496	-12919.8303
-11991.5159	-12001.9984	-12006.6597	-12016.2450	-12025.5129	-12030.3821	-12039.1577	-12046.3357	-12055.3957	-12061.5342	-12069.2265	-12077.0829	-12084.6986	-12093.1021	-12100.8053	-12107.6113	-12116.7917	-12123.1271	-12129.9003	-12139.3105	-12145.3614	-12152.2221	-12158.5028	-12163.5362	-12162.8031	-12156.4786	-12123.4663	-12037.1006	-12067.3882	-12140.4484	-12177.7062	-12205.4225	-12219.5268	-12237.4718	-12247.0023	-12255.6356	-12264.0391	-12273.1320	-12280.4304	-12287.3020	-12297.3577	-12303.0367	-12309.0220	-12315.6748	-12322.2728	-12330.2606	-12335.4143	-12337.0228	-12336.8258	-12336.2021	-12338.1498	-12332.8757	-12336.1364	-12363.8855	-12382.5637	-12393.4729	-12405.5420	-12414.4489	-12422.9071	-12431.7045	-12438.9044	-12446.3122	-12455.3941	-12458.6658	-12464.9137	-12470.5817	-12476.2825	-12488.2860	-12495.5624	-12502.1167	-12510.7172	-12517.7530	-12527.7102	-12533.7503	-12540.4468	-12549.1020	-12555.5250	-12562.4732	-12570.5922	-12579.1270	-12584.0947	-12589.1171	-12595.3760	-12599.8294	-12600.5735	-12597.5535	-12454.6938	-12133.1063	-12104.9305	-12219.1438	-12364.8703	-12509.8418	-12633.3450	-12668.1736	-12683.4488	-12693.8547	-12702.7177	-12709.3596	-12713.9224	-12723.5186	-12730.9045	-12736.4084	-12744.1444	-12750.3376	-12757.2530	-12763.3368	-12768.7094	-12771.7294	-12776.2266	-12780.2204	-12784.1705	-12788.5255	-12795.4409	-12805.9890	-12815.9025	-12824.9297	-12836.2876	-12847.0218	-12854.4624	-12861.0386	-12868.0415	-12875.4383	-12880.7562	-12885.6364	-12891.1840	-12897.1146	-12902.9795	-12909.1071
-11995.0064	-12002.3595	-12008.8262	-12017.7550	-12023.1057	-12029.8460	-12040.4051	-12047.9004	-12056.3914	-12062.7160	-12070.3863	-12080.1138	-12088.5064	-12095.0060	-12102.5779	-12112.1194	-12119.2099	-12125.2061	-12133.0297	-12139.8247	-12146.5979	-12152.8239	-12158.4044	-12160.9648	-12160.8882	-12126.1909	-11862.2463	-11683.7811	-11627.5716	-11768.0460	-11913.8928	-12059.8820	-12194.4476	-12243.9167	-12256.7955	-12265.8227	-12272.6943	-12279.3909	-12287.2582	-12295.5304	-12301.9206	-12308.9673	-12314.7338	-12322.9950	-12329.9979	-12336.2787	-12342.6798	-12343.8397	-12347.1223	-12351.9149	-12355.9744	-12361.4126	-12372.4641	-12382.6184	-12395.1142	-12403.0582	-12411.9650	-12420.3466	-12429.5817	-12432.9191	-12440.5566	-12446.5529	-12453.5886	-12457.5606	-12462.9879	-12467.5398	-12474.7834	-12484.9924	-12495.4092	-12504.3599	-12512.0850	-12522.2939	-12529.6579	-12534.3740	-12545.1957	-12553.2709	-12558.5450	-12566.4671	-12572.6165	-12579.6194	-12587.0382	-12589.6533	-12596.7875	-12600.8142	-12598.8337	-12574.2359	-12398.0576	-12059.9914	-11877.2916	-11931.1922	-12077.0938	-12222.6343	-12367.8137	-12513.2120	-12646.8256	-12694.5112	-12704.3591	-12708.3857	-12715.1589	-12724.1861	-12730.7076	-12737.5135	-12742.2514	-12748.6526	-12756.5527	-12763.2383	-12767.7684	-12774.1148	-12777.9117	-12782.2119	-12789.2148	-12794.6749	-12802.3234	-12810.3987	-12818.7256	-12828.8470	-12835.4013	-12843.4547	-12852.6898	-12858.9486	-12863.8069	-12869.0591	-12873.4141	-12874.7709	-12876.6748	-12883.2182	-12889.4442	-12896.8410
-12002.6111	-12010.1502	-12017.6674	-12023.0509	-12029.6600	-12037.3303	-12044.0160	-12055.2644	-12065.2873	-12072.9468	-12080.8579	-12090.4869	-12099.0655	-12103.6284	-12113.7935	-12122.7770	-12129.6814	-12135.8309	-12142.7134	-12150.6355	-12156.7740	-12161.8839	-12168.1319	-12168.2413	-12168.9744	-12120.3041	-11813.6197	-11523.1296	-11496.8905	-11622.4507	-11768.4618	-11913.5865	-12059.3020	-12200.1374	-12272.4426	-12286.6783	-12298.7912	-12304.5467	-12310.6742	-12317.5787	-12326.3433	-12330.9390	-12338.0623	-12345.6560	-12353.5343	-12359.4868	-12364.2466	-12368.7219	-12373.0112	-12378.8324	-12385.7040	-12391.7659	-12399.7537	-12408.1790	-12418.1473	-12426.0365	-12432.6893	-12441.6071	-12450.2732	-12452.2428	-12457.8779	-12464.3447	-12464.9246	-12468.3057	-12472.8795	-12475.4728	-12485.6380	-12498.3745	-12509.0650	-12524.4495	-12531.8573	-12540.7532	-12548.3470	-12553.5445	-12562.8234	-12571.6427	-12578.2407	-12583.3179	-12591.2509	-12598.6805	-12604.9941	-12608.6159	-12614.0213	-12615.4000	-12613.0037	-12594.0958	-12519.5475	-12270.6591	-12085.8365	-12048.5241	-12171.0534	-12315.5435	-12460.5697	-12603.4403	-12696.5574	-12712.0404	-12718.5947	-12726.6043	-12731.5939	-12738.8922	-12748.5650	-12752.4057	-12755.8306	-12763.9277	-12772.9877	-12777.6928	-12783.8860	-12788.8756	-12794.7515	-12800.1897	-12805.6608	-12812.9372	-12819.4040	-12826.7024	-12834.4931	-12841.6273	-12850.7749	-12859.0252	-12866.8269	-12872.1557	-12875.7994	-12878.6663	-12880.0012	-12877.3532	-12874.0815	-12865.0653	-12883.1197	-12901.7978
-11973.8226	-11981.1537	-11984.2941	-11992.6320	-11997.0635	-12001.1559	-12009.7891	-12020.7859	-12028.0077	-12039.6172	-12049.3994	-12057.7154	-12067.2569	-12075.5838	-12082.8603	-12093.0036	-12100.7615	-12106.3529	-12113.1698	-12119.9539	-12128.9811	-12133.5659	-12139.7810	-12144.0703	-12144.5189	-12126.9021	-12010.3910	-11841.8393	-11647.8035	-11668.7904	-11813.2148	-11958.2958	-12103.0703	-12205.4115	-12228.3570	-12239.5070	-12246.9476	-12256.4672	-12263.5796	-12269.2804	-12276.9398	-12283.2972	-12289.4685	-12297.1608	-12304.3716	-12312.8517	-12318.1367	-12323.3123	-12329.9761	-12336.6617	-12342.9315	-12348.7636	-12354.7270	-12362.3646	-12370.2757	-12378.7777	-12387.4219	-12394.8078	-12403.0034	-12409.3498	-12414.9631	-12420.1716	-12424.3733	-12426.2554	-12426.6493	-12427.4809	-12430.3915	-12444.8022	-12458.2500	-12467.6602	-12481.5566	-12493.4834	-12501.8322	-12508.5835	-12516.0241	-12526.0580	-12534.3849	-12540.3046	-12546.9245	-12553.7524	-12561.7839	-12566.7406	-12571.1284	-12576.5447	-12579.0504	-12577.3107	-12569.8372	-12552.9755	-12496.9521	-12367.5511	-12387.5642	-12480.7031	-12598.7243	-12636.0586	-12651.3557	-12661.0066	-12672.4848	-12678.6671	-12686.3375	-12694.1501	-12701.4156	-12708.6374	-12713.5176	-12719.8311	-12728.1033	-12734.2528	-12740.3256	-12745.2386	-12754.2658	-12760.3387	-12766.9696	-12774.6181	-12779.8484	-12787.2015	-12795.7472	-12801.9514	-12809.9391	-12816.8217	-12825.0501	-12831.5169	-12835.7843	-12841.3100	-12843.0826	-12841.8790	-12795.5393	-12744.7244	-12795.2658	-12842.9185
-11954.9913	-11961.9504	-11963.5917	-11965.8458	-11968.8549	-11971.8092	-11980.5410	-11993.0368	-12007.3162	-12019.7683	-12030.8089	-12042.4293	-12050.7234	-12059.1926	-12067.8259	-12075.7480	-12084.8080	-12090.5416	-12096.2972	-12105.3463	-12112.6009	-12118.3017	-12124.2323	-12128.3137	-12130.1738	-12127.7337	-12117.2841	-12087.2153	-12016.2559	-11933.7746	-12012.5903	-12137.4831	-12180.5402	-12197.1721	-12211.4078	-12221.2885	-12227.6020	-12237.5374	-12242.9538	-12250.9743	-12259.2246	-12266.3479	-12274.6311	-12280.0036	-12287.8272	-12296.1760	-12302.4239	-12310.9478	-12317.2614	-12324.0455	-12331.6721	-12337.3072	-12343.9163	-12352.1556	-12359.6728	-12367.5183	-12374.7072	-12382.2245	-12388.4395	-12395.5410	-12401.4825	-12404.2508	-12407.1943	-12386.9952	-12323.2248	-12290.5627	-12363.1305	-12404.9840	-12430.4680	-12454.0373	-12468.3604	-12481.4581	-12490.0695	-12498.4074	-12506.3732	-12514.0545	-12522.8301	-12531.5400	-12536.1466	-12543.4668	-12551.3232	-12557.2320	-12562.5607	-12568.2397	-12571.8396	-12571.1065	-12569.3558	-12566.6640	-12559.7924	-12555.8095	-12578.8207	-12597.6629	-12615.5751	-12631.5505	-12640.4245	-12650.3928	-12662.3743	-12669.5086	-12676.0191	-12684.2475	-12690.8565	-12698.3956	-12702.4223	-12708.5061	-12716.7674	-12724.8207	-12732.3598	-12739.3080	-12746.2125	-12753.3795	-12762.6365	-12768.4358	-12774.8588	-12785.4070	-12791.9941	-12797.7387	-12804.2821	-12812.0837	-12817.7517	-12824.0325	-12829.3941	-12832.6658	-12834.8323	-12794.6640	-12574.2250	-12360.6905	-12325.0084	-12467.9228
-11948.3166	-11953.0873	-11954.0174	-11901.8784	-11856.7205	-11892.0306	-11951.8728	-11974.9605	-11995.6958	-12011.8572	-12025.8740	-12039.4640	-12046.2810	-12056.3805	-12064.5652	-12071.7213	-12079.6980	-12084.8189	-12091.9203	-12099.7330	-12107.2611	-12114.3406	-12120.5557	-12124.7903	-12128.7404	-12129.2437	-12125.8955	-12122.1752	-12109.9200	-12124.1010	-12147.7359	-12165.4839	-12179.2709	-12193.0798	-12205.2693	-12213.9244	-12222.2951	-12230.8847	-12237.3295	-12243.8838	-12252.7250	-12261.1176	-12265.8774	-12270.9545	-12280.5617	-12288.3415	-12295.9134	-12304.6670	-12312.4250	-12321.0911	-12327.8314	-12333.2259	-12341.3230	-12349.2560	-12355.2851	-12362.2333	-12370.5055	-12375.7686	-12384.0299	-12391.0985	-12394.4905	-12397.6199	-12395.5300	-12300.7388	-12035.4045	-11851.4355	-11899.8651	-12046.2044	-12192.6640	-12337.6246	-12452.0896	-12477.3548	-12488.1437	-12495.8579	-12503.7252	-12511.5488	-12515.9037	-12524.1541	-12531.3868	-12538.7070	-12548.9160	-12555.0764	-12560.4599	-12567.4956	-12570.7564	-12571.0518	-12571.5332	-12573.9624	-12578.0219	-12582.4425	-12592.4217	-12603.4622	-12617.4243	-12629.0776	-12639.2756	-12647.0882	-12655.5684	-12665.0223	-12670.6903	-12675.8550	-12683.9083	-12688.7775	-12694.4236	-12700.4965	-12709.1407	-12716.2531	-12726.6699	-12734.6905	-12741.9560	-12751.2130	-12757.3515	-12764.7046	-12771.4777	-12779.7609	-12789.5650	-12793.6682	-12799.0736	-12805.7921	-12812.7074	-12819.3931	-12823.0039	-12827.8841	-12821.9863	-12582.3331	-12218.6514	-12082.6196	-12136.8375	-12284.2601
-11981.0553	-11977.4116	-11872.5318	-11598.8706	-11485.8827	-11452.7173	-11582.5231	-11728.4466	-11874.4685	-12009.8329	-12061.1075	-12074.6647	-12081.3394	-12089.4912	-12094.9622	-12103.6831	-12110.6313	-12116.6494	-12123.8821	-12131.9355	-12138.3585	-12146.8277	-12151.5327	-12155.2531	-12160.5600	-12163.0548	-12162.9125	-12165.8997	-12168.8759	-12175.5287	-12189.6987	-12203.2231	-12213.9901	-12225.4683	-12233.4232	-12241.8596	-12249.2236	-12256.2921	-12263.1419	-12268.8536	-12274.8608	-12280.6711	-12287.6521	-12291.3287	-12302.9710	-12312.3812	-12318.8042	-12327.4922	-12335.4799	-12342.1327	-12350.4815	-12356.5872	-12364.5530	-12370.5274	-12379.3905	-12387.7940	-12392.3568	-12399.0315	-12407.2927	-12412.8294	-12413.6720	-12415.2476	-12392.2583	-12236.6621	-11876.8320	-11713.9155	-11757.0601	-11897.3046	-12043.5345	-12189.5017	-12335.0094	-12469.4765	-12532.9624	-12542.9744	-12548.3689	-12553.4460	-12559.2015	-12567.6160	-12573.5247	-12580.9762	-12587.7822	-12593.2970	-12599.5340	-12604.6330	-12610.8590	-12615.0499	-12619.8425	-12626.9220	-12630.4235	-12639.0130	-12647.5259	-12656.0717	-12665.6788	-12672.1784	-12677.6823	-12685.5825	-12693.2091	-12699.7962	-12702.3567	-12705.8581	-12713.0142	-12710.7383	-12718.0148	-12727.3046	-12737.4041	-12751.2787	-12759.8244	-12769.6613	-12779.3670	-12785.7462	-12794.6749	-12799.0080	-12806.5142	-12816.6357	-12820.4873	-12826.7242	-12832.0530	-12840.9708	-12847.6564	-12851.4862	-12853.8168	-12853.6527	-12840.9489	-12778.1852	-12609.0427	-12389.8401	-12236.9794	-12297.5438
-12001.1559	-11995.4332	-11924.2550	-11591.9771	-11356.6459	-11347.0497	-11476.8884	-11622.4507	-11767.5864	-11913.3238	-12045.8433	-12091.6577	-12101.0132	-12108.6070	-12114.2641	-12121.2779	-12129.3641	-12135.6667	-12142.9651	-12149.0927	-12157.1351	-12165.2979	-12169.4121	-12175.6491	-12181.3827	-12186.0659	-12189.8628	-12195.7606	-12201.7787	-12209.2194	-12216.7584	-12226.6501	-12235.1739	-12242.7240	-12251.2369	-12258.0538	-12264.5862	-12271.3156	-12275.3532	-12278.1325	-12282.5750	-12286.5689	-12291.7335	-12297.7517	-12308.1904	-12320.8394	-12330.3809	-12339.8020	-12348.7636	-12357.7033	-12366.5773	-12372.2672	-12381.2287	-12387.3453	-12393.8668	-12401.0339	-12405.1919	-12413.5954	-12419.8214	-12424.9204	-12427.8748	-12428.0717	-12404.6557	-12276.1520	-12131.2133	-11987.4673	-11822.8110	-11929.0695	-12074.4568	-12219.9535	-12364.1372	-12487.1589	-12519.2301	-12528.0713	-12536.0153	-12542.1538	-12548.7518	-12554.8466	-12559.8143	-12568.4913	-12576.1399	-12581.2389	-12587.3008	-12593.3517	-12600.6939	-12606.6573	-12612.3362	-12619.3610	-12623.8911	-12629.2527	-12637.9078	-12644.5387	-12655.1635	-12660.6892	-12666.0727	-12673.7978	-12680.3631	-12686.5016	-12690.4189	-12691.5021	-12691.6115	-12692.7276	-12686.9940	-12690.4189	-12710.5523	-12724.0876	-12738.3889	-12754.4847	-12761.2688	-12771.9373	-12780.9864	-12787.5954	-12795.0141	-12801.2839	-12808.7245	-12812.8935	-12819.8198	-12826.9759	-12832.7752	-12839.8328	-12843.8595	-12846.8029	-12845.3039	-12839.4170	-12807.6413	-12731.1781	-12641.6282	-12585.2984
-11993.2557	-11987.6971	-11941.6966	-11758.2528	-11602.0657	-11448.2748	-11454.2820	-11598.0390	-11743.4263	-11889.1419	-12025.3707	-12079.9388	-12091.2748	-12098.4528	-12104.2083	-12112.8525	-12120.1399	-12124.7247	-12132.0230	-12141.1487	-12146.9590	-12152.3972	-12160.1660	-12166.2608	-12172.2570	-12179.2490	-12183.0569	-12190.3662	-12197.4566	-12204.9082	-12213.0053	-12219.8660	-12229.1230	-12235.0645	-12243.9933	-12249.6065	-12254.8587	-12260.9644	-12262.2446	-12264.2470	-12265.6586	-12258.5900	-12259.6185	-12272.7490	-12290.2126	-12305.2360	-12319.1325	-12330.9937	-12338.8501	-12349.1794	-12359.9683	-12366.6758	-12372.9456	-12380.3205	-12388.1769	-12393.7793	-12399.6552	-12406.2314	-12412.5778	-12419.3947	-12421.8348	-12421.5612	-12420.2591	-12404.9840	-12354.0377	-12291.0113	-12233.5436	-12208.6613	-12318.7167	-12447.0891	-12488.9644	-12499.5891	-12510.0388	-12518.3329	-12524.3620	-12531.2992	-12540.4687	-12546.9902	-12552.9864	-12561.3462	-12565.4057	-12572.5509	-12580.3525	-12586.4145	-12593.1110	-12601.0659	-12608.6597	-12612.8177	-12621.0242	-12629.0229	-12633.1371	-12640.8622	-12650.3599	-12654.1459	-12662.0351	-12669.6289	-12674.7279	-12680.6804	-12682.9673	-12680.0786	-12665.3396	-12637.2404	-12547.7780	-12623.5956	-12684.4773	-12707.1274	-12729.8213	-12744.5383	-12756.4761	-12766.7617	-12775.8545	-12782.9560	-12788.9850	-12796.5132	-12804.2164	-12809.2935	-12816.5481	-12822.3036	-12829.9522	-12836.9988	-12840.2596	-12845.1507	-12845.8510	-12844.7021	-12842.3386	-12842.5465	-12842.3386	-12857.6684
-11964.7297	-11964.4999	-11962.5851	-11937.0572	-11871.3172	-11829.6498	-11824.5618	-11857.5521	-11982.9811	-12025.6661	-12039.5844	-12050.3952	-12059.5428	-12070.3863	-12076.8422	-12084.7533	-12093.6273	-12098.1136	-12106.5171	-12114.5485	-12121.6609	-12130.4255	-12136.0716	-12142.6697	-12150.7230	-12156.3254	-12163.4268	-12171.6224	-12178.3299	-12186.3942	-12193.7473	-12200.8158	-12208.6613	-12216.4411	-12222.1201	-12227.8756	-12234.4408	-12238.4894	-12241.7282	-12237.8000	-12188.0355	-12029.8022	-11873.3525	-11945.5920	-12090.8371	-12229.2105	-12296.5371	-12314.7009	-12323.4436	-12332.6131	-12341.4652	-12349.9782	-12357.0796	-12362.8789	-12372.3656	-12379.7953	-12385.9010	-12391.2188	-12397.2260	-12402.6861	-12406.9098	-12409.6453	-12411.2538	-12412.3370	-12411.1772	-12408.8684	-12415.5978	-12435.5452	-12449.6057	-12461.3028	-12475.0242	-12486.0538	-12495.2232	-12503.6705	-12509.6668	-12516.8557	-12525.8501	-12531.9776	-12536.5296	-12544.3641	-12553.3147	-12558.6654	-12566.5108	-12573.6888	-12579.9149	-12588.7670	-12596.2733	-12603.8889	-12611.0122	-12619.3720	-12625.2479	-12632.3493	-12639.7789	-12645.6439	-12652.6468	-12659.9999	-12665.4162	-12671.4344	-12671.7298	-12665.5803	-12592.5201	-12325.6102	-12224.8337	-12313.7052	-12458.0749	-12602.3789	-12706.4709	-12734.8765	-12749.8781	-12760.0104	-12770.4382	-12774.8916	-12780.3846	-12789.2586	-12795.9333	-12803.7021	-12808.7026	-12816.6028	-12823.3103	-12829.1534	-12834.7776	-12838.8918	-12843.2358	-12845.3258	-12846.7592	-12852.0770	-12857.9420	-12867.8336
-11964.8938	-11966.9181	-11966.7102	-11967.5965	-11965.0908	-11962.7054	-11984.0753	-12002.2172	-12020.4796	-12033.2599	-12044.0597	-12056.5774	-12065.3530	-12072.6404	-12078.1224	-12085.5192	-12091.9422	-12099.1640	-12105.6745	-12112.6118	-12120.1837	-12129.9003	-12136.3999	-12142.1116	-12152.0251	-12162.2341	-12168.9744	-12174.7081	-12183.8775	-12191.6902	-12198.6603	-12206.3525	-12211.9877	-12218.0387	-12225.0744	-12230.6002	-12234.7034	-12238.6207	-12234.4408	-12191.8105	-12010.5660	-11839.5962	-11674.6991	-11778.8567	-11924.9443	-12071.1304	-12215.5658	-12316.5939	-12335.4362	-12345.0105	-12352.6590	-12359.0273	-12365.3627	-12372.1140	-12380.3315	-12388.8444	-12393.3197	-12397.2479	-12405.7499	-12410.1596	-12413.9893	-12417.9503	-12423.1259	-12426.5836	-12428.0498	-12434.1008	-12442.0229	-12452.5820	-12465.3514	-12475.9324	-12486.3602	-12495.6171	-12504.6006	-12512.3804	-12516.8010	-12522.6441	-12527.2726	-12531.3977	-12537.4487	-12546.0273	-12553.5445	-12561.1054	-12565.5042	-12578.5471	-12589.0077	-12595.3213	-12603.7358	-12610.3010	-12618.8249	-12626.0466	-12632.0648	-12639.3850	-12645.6439	-12655.6012	-12660.6345	-12664.2235	-12668.9067	-12670.5152	-12669.2131	-12623.0157	-12515.4223	-12203.7045	-11988.8132	-12027.8764	-12168.5696	-12314.3289	-12459.6943	-12604.3047	-12732.3489	-12770.0334	-12778.6229	-12784.7067	-12790.9874	-12796.9946	-12804.6322	-12809.7421	-12815.2241	-12822.9821	-12829.3722	-12835.8937	-12840.5331	-12846.6169	-12850.0965	-12856.2241	-12860.7541	-12866.0938	-12873.9502	-12882.0364
-11943.6553	-11948.7214	-11950.8880	-11955.7353	-11960.6155	-11966.1522	-11977.4772	-11986.8765	-11998.8690	-12010.6645	-12018.4881	-12028.5548	-12038.6762	-12046.0621	-12050.8985	-12058.2406	-12065.7031	-12070.8459	-12075.7370	-12083.6372	-12091.3404	-12100.0941	-12109.1213	-12114.7455	-12125.8626	-12136.8594	-12142.6040	-12149.9571	-12157.6822	-12165.1009	-12173.5701	-12180.1244	-12187.6197	-12195.2026	-12200.3344	-12206.8340	-12211.8673	-12215.7737	-12215.1828	-12176.3056	-11879.4144	-11575.1482	-11524.0815	-11645.9981	-11792.9611	-11938.4906	-12085.0159	-12227.2847	-12301.7127	-12316.0906	-12324.7020	-12330.3809	-12336.7054	-12343.5552	-12352.4948	-12356.7732	-12366.3256	-12371.7967	-12376.1516	-12384.9381	-12388.8663	-12394.2826	-12399.4910	-12404.3274	-12407.9602	-12414.2191	-12422.0427	-12431.5841	-12441.6727	-12450.8531	-12456.8056	-12466.0407	-12474.1926	-12481.3159	-12487.5528	-12491.9406	-12496.9083	-12499.3156	-12502.8280	-12509.1306	-12515.4551	-12525.2373	-12534.7679	-12542.6790	-12553.7961	-12563.7315	-12572.2226	-12580.7136	-12588.1324	-12596.0325	-12600.4203	-12606.7777	-12613.4304	-12622.5780	-12628.3773	-12633.2903	-12639.2537	-12644.0245	-12645.5673	-12640.7090	-12537.7879	-12321.2443	-12198.9666	-12086.4931	-12201.7350	-12346.8925	-12492.5315	-12635.5553	-12717.7850	-12733.9464	-12742.8533	-12749.4076	-12756.8044	-12764.2560	-12770.7446	-12776.9706	-12780.7675	-12787.3109	-12794.4451	-12801.5903	-12807.6522	-12812.8716	-12819.0538	-12826.8555	-12830.3680	-12837.8523	-12844.4066	-12851.5956
-11921.3881	-11929.2774	-11933.2165	-11941.1824	-11947.6163	-11954.5207	-11962.6507	-11972.1484	-11983.0905	-11993.0587	-11999.8866	-12008.1588	-12016.7155	-12022.9634	-12027.7451	-12033.2490	-12038.4902	-12042.9765	-12044.5849	-12052.8134	-12064.9153	-12075.5291	-12083.6810	-12093.4741	-12104.3396	-12112.1413	-12121.7922	-12128.5435	-12136.2029	-12158.7983	-12197.7521	-12205.1051	-12212.8412	-12216.8897	-12223.9693	-12227.9303	-12231.3770	-12234.9770	-12229.1558	-12187.8604	-12046.0949	-11852.2343	-11681.0674	-11695.1608	-11839.7822	-11985.1695	-12130.7428	-12268.7661	-12328.0831	-12336.2787	-12342.9862	-12349.8140	-12355.3507	-12362.3755	-12370.4617	-12377.0379	-12380.4300	-12388.8335	-12397.1494	-12402.8503	-12409.5249	-12413.6939	-12419.6573	-12428.0608	-12434.9762	-12443.3578	-12452.1115	-12459.9241	-12463.1630	-12471.3914	-12479.2587	-12488.1218	-12496.3174	-12499.5891	-12502.1605	-12506.5592	-12509.1415	-12501.4164	-12500.9678	-12500.0706	-12520.3572	-12539.1885	-12551.7828	-12563.5674	-12574.6846	-12585.5610	-12591.7651	-12599.6106	-12607.2700	-12613.6493	-12620.7397	-12627.8959	-12635.3365	-12643.4117	-12648.4232	-12653.2486	-12659.3981	-12663.0199	-12663.8515	-12655.8419	-12641.7485	-12591.1414	-12496.6895	-12452.8555	-12445.9511	-12556.2253	-12687.7709	-12734.7890	-12747.0878	-12757.4719	-12761.5314	-12767.8340	-12777.5725	-12781.6429	-12787.9674	-12794.5217	-12798.7235	-12808.2978	-12815.9572	-12821.6471	-12828.2014	-12832.4907	-12840.5660	-12849.4838	-12854.6922	-12860.4805	-12869.8798	-12877.0578
-11946.2923	-11955.7134	-11961.6331	-11969.2159	-11976.6237	-11984.5786	-11991.4721	-11999.5911	-12008.2791	-12017.5361	-12023.7731	-12033.2818	-12039.7704	-12045.8323	-12049.4542	-12052.7915	-12056.1835	-12047.5831	-12045.5260	-12062.7378	-12070.9663	-12092.6206	-12107.2830	-12115.2926	-12128.9155	-12140.6126	-12147.3529	-12155.6360	-12163.4815	-12170.1343	-12178.6363	-12184.2277	-12192.0294	-12199.0979	-12205.8273	-12210.7622	-12215.6752	-12220.7414	-12219.7566	-12209.4820	-12182.0611	-12133.3908	-12034.9559	-12011.5071	-12029.8350	-12170.8783	-12275.3970	-12301.1109	-12308.8250	-12315.6201	-12323.3342	-12331.6611	-12337.8325	-12346.3235	-12352.8122	-12359.2899	-12365.4393	-12372.9784	-12381.5023	-12387.2140	-12393.5276	-12400.2132	-12407.6976	-12415.4446	-12422.2287	-12430.6541	-12436.3549	-12443.4782	-12451.8489	-12458.0968	-12467.4194	-12473.8534	-12481.0423	-12484.6641	-12488.1109	-12491.8640	-12485.8896	-12458.8190	-12396.3178	-12278.0669	-12304.7765	-12446.5638	-12529.1984	-12552.7676	-12568.7540	-12576.6760	-12582.0595	-12591.1414	-12597.9693	-12605.7600	-12612.6864	-12617.7088	-12625.4011	-12631.6380	-12639.5163	-12644.6263	-12649.7909	-12655.3714	-12657.3081	-12657.0674	-12654.8243	-12650.7867	-12647.5150	-12648.8827	-12677.7698	-12699.7853	-12715.8482	-12729.1428	-12739.1111	-12745.4794	-12752.0884	-12759.5071	-12765.5033	-12772.6704	-12779.0715	-12783.6015	-12788.8209	-12798.4280	-12805.0918	-12811.5038	-12819.7213	-12825.1595	-12834.1649	-12843.2030	-12850.2935	-12856.3773	-12863.0629	-12871.4883
-11937.5715	-11949.6843	-11952.9013	-11962.8586	-11971.2949	-11978.8012	-11986.5591	-11992.9384	-12001.5717	-12009.2530	-12016.6061	-12024.3421	-12031.0496	-12034.9997	-12039.6391	-12039.3656	-12025.2175	-11978.5167	-11946.4564	-11969.5333	-12018.2911	-12070.5067	-12094.3385	-12108.6179	-12123.5539	-12132.6467	-12140.0655	-12147.3529	-12156.2488	-12163.6128	-12168.7337	-12175.5615	-12185.2890	-12189.2829	-12198.5618	-12205.9148	-12208.7488	-12215.0187	-12218.2575	-12216.6818	-12214.3184	-12210.6309	-12205.8273	-12221.8574	-12242.4833	-12266.4902	-12280.7696	-12290.8800	-12298.7474	-12304.0324	-12314.4602	-12323.6406	-12328.7177	-12334.1997	-12341.4324	-12349.3764	-12353.8517	-12360.9640	-12370.4398	-12376.8410	-12385.6931	-12391.5033	-12400.4539	-12408.7699	-12415.0397	-12422.2177	-12429.5599	-12436.7707	-12445.0429	-12452.3631	-12460.3290	-12467.7477	-12471.9057	-12477.3986	-12478.3068	-12479.4995	-12462.3204	-12389.6651	-12138.2600	-11946.0078	-12028.3360	-12174.4236	-12320.4674	-12463.8633	-12555.5578	-12571.1612	-12578.0109	-12584.0510	-12590.9445	-12596.1748	-12604.6877	-12611.6359	-12618.1355	-12624.8649	-12633.7170	-12639.2756	-12644.9217	-12651.0930	-12653.4456	-12656.0936	-12657.9647	-12663.2825	-12670.4933	-12675.4610	-12689.5107	-12701.7767	-12714.8416	-12723.2013	-12732.4364	-12739.7129	-12744.1554	-12750.0203	-12756.9904	-12762.0347	-12768.6984	-12770.8650	-12776.4673	-12790.1011	-12795.0251	-12804.4352	-12813.7251	-12820.9249	-12828.9345	-12837.3052	-12845.4680	-12852.0004	-12858.3249	-12866.8598
-11946.7628	-11958.5146	-11961.1188	-11972.9800	-11981.4164	-11986.7123	-11995.7286	-12003.7382	-12011.9885	-12019.6808	-12025.6661	-12032.3517	-12037.9322	-12042.7576	-12044.3004	-12037.4398	-11997.1292	-11786.0566	-11636.7083	-11580.7177	-11715.2395	-11861.4584	-12005.6421	-12109.7887	-12132.3841	-12144.8581	-12151.6422	-12158.3278	-12166.4906	-12172.0601	-12180.0368	-12186.7772	-12192.3467	-12198.9995	-12206.2759	-12213.5196	-12218.4107	-12222.9954	-12228.0835	-12230.2281	-12232.8323	-12239.0146	-12242.6255	-12255.7013	-12270.0792	-12278.8438	-12287.6521	-12296.0556	-12304.2184	-12311.0682	-12321.3428	-12328.4223	-12331.8143	-12336.0817	-12341.2355	-12348.5776	-12353.6547	-12363.1962	-12372.3985	-12378.4494	-12388.0019	-12394.8407	-12404.4587	-12412.5340	-12420.6092	-12427.6997	-12433.7507	-12441.6290	-12449.2665	-12458.1077	-12463.8414	-12470.7349	-12476.1403	-12478.8429	-12480.5171	-12477.0594	-12444.6490	-12234.6268	-11929.8901	-11791.7902	-11876.8649	-12022.9853	-12168.6352	-12314.3727	-12458.4688	-12561.6307	-12582.5191	-12590.1019	-12592.9688	-12601.3394	-12607.6640	-12611.6031	-12620.6850	-12627.7864	-12633.2246	-12639.5163	-12647.0226	-12651.9137	-12657.0236	-12661.9913	-12666.4995	-12672.3644	-12681.8840	-12688.8432	-12696.1087	-12704.0746	-12713.0799	-12721.0895	-12730.1714	-12734.6905	-12742.2514	-12748.7073	-12751.3553	-12753.2373	-12759.8354	-12764.2012	-12766.9258	-12778.2946	-12786.8294	-12798.0013	-12808.9981	-12817.8393	-12823.1681	-12834.1211	-12844.0565	-12847.8753	-12855.9177	-12863.1613
-11936.7508	-11946.7847	-11951.9494	-11963.5589	-11971.6560	-11980.4316	-11986.9530	-11993.6605	-12003.6069	-12011.4195	-12016.5623	-12022.1099	-12030.4368	-12034.4088	-12036.2033	-12034.6933	-11969.9381	-11674.7101	-11432.5401	-11419.7817	-11554.0956	-11699.7455	-11845.6034	-11990.4654	-12103.7925	-12132.3294	-12140.4047	-12144.5955	-12151.6312	-12159.7940	-12165.6808	-12172.0491	-12179.1068	-12188.2762	-12194.5460	-12200.1374	-12206.3963	-12212.8193	-12218.6514	-12224.6039	-12229.0464	-12234.8347	-12242.6255	-12249.3549	-12255.8654	-12265.1224	-12274.5763	-12282.1154	-12289.3481	-12295.5851	-12303.7370	-12309.0220	-12314.2414	-12318.3665	-12320.4127	-12324.5597	-12325.8181	-12334.8562	-12343.3363	-12356.6419	-12369.2581	-12377.2239	-12387.5532	-12396.6133	-12405.3888	-12412.6653	-12420.0621	-12426.4414	-12433.9805	-12441.0819	-12445.8854	-12452.6148	-12459.5958	-12462.1563	-12464.7386	-12466.3690	-12453.9607	-12346.3892	-12154.8154	-11990.1591	-11915.2168	-12050.2092	-12195.8919	-12341.5528	-12480.4295	-12545.0644	-12559.0483	-12564.3881	-12571.7411	-12579.1270	-12584.7841	-12591.0758	-12597.8380	-12604.2172	-12612.9380	-12619.0109	-12624.0771	-12630.3250	-12638.0720	-12642.1753	-12648.5435	-12655.0760	-12662.2102	-12669.0709	-12675.9425	-12683.9521	-12692.7386	-12698.8114	-12705.7596	-12714.4039	-12720.6409	-12727.8626	-12729.8650	-12730.6638	-12730.4121	-12730.9155	-12727.5015	-12735.2048	-12747.1754	-12767.5167	-12777.3427	-12788.3395	-12800.2991	-12810.4643	-12820.5748	-12826.7571	-12834.6463	-12840.7848
-11929.4525	-11939.0377	-11944.4650	-11957.8034	-11966.5133	-11974.9496	-11982.0291	-11987.5220	-11997.0745	-12004.2743	-12009.7891	-12017.6456	-12023.0947	-12027.6685	-12029.6381	-12028.8393	-11988.3317	-11848.3389	-11639.5532	-11480.7947	-11496.6060	-11641.5665	-11787.0086	-11932.7132	-12068.7013	-12123.2584	-12132.7780	-12137.8552	-12145.4052	-12152.1455	-12159.7940	-12165.2432	-12171.1409	-12179.6539	-12186.3176	-12193.3752	-12198.3648	-12204.4486	-12213.1804	-12217.8636	-12223.9364	-12231.3552	-12238.1940	-12246.3786	-12252.2217	-12261.3693	-12270.8232	-12276.5787	-12283.3957	-12290.5408	-12296.3948	-12300.4543	-12303.3540	-12305.2251	-12301.4938	-12299.9729	-12302.8944	-12310.5101	-12327.5032	-12346.7612	-12357.7252	-12370.2429	-12381.9728	-12390.1575	-12399.1628	-12406.4393	-12412.7747	-12419.1102	-12428.2796	-12434.5604	-12440.8740	-12447.4939	-12453.3370	-12459.5192	-12462.1016	-12464.3775	-12462.9441	-12453.9388	-12421.9551	-12309.2189	-12274.0511	-12255.0338	-12372.0483	-12494.5011	-12529.0014	-12540.4359	-12548.8066	-12556.0721	-12564.5631	-12570.5922	-12578.3502	-12585.8126	-12589.0953	-12598.2757	-12604.1078	-12610.2572	-12619.1750	-12624.3506	-12630.4235	-12638.3346	-12646.0378	-12651.8152	-12659.5622	-12666.7730	-12675.2094	-12680.4287	-12687.9131	-12696.1853	-12703.5056	-12708.9547	-12715.0604	-12719.8311	-12721.8117	-12721.2974	-12719.1856	-12688.8870	-12632.9949	-12666.0071	-12716.2640	-12748.8933	-12768.0091	-12782.7590	-12795.3205	-12805.4091	-12814.5457	-12822.2052	-12829.2956	-12835.9375
-11902.5787	-11917.9305	-11927.7564	-11938.2937	-11947.7148	-11953.5907	-11962.2130	-11967.6841	-11975.2231	-11985.1038	-11991.1001	-11998.7486	-12004.3619	-12009.9205	-12013.8487	-12012.8748	-12010.0627	-11985.6947	-11930.5576	-11828.5666	-11830.2516	-11856.9722	-11995.0502	-12072.3231	-12087.9265	-12099.7330	-12110.4453	-12115.8944	-12126.0487	-12130.7538	-12137.8989	-12144.5736	-12153.2944	-12156.5114	-12168.5148	-12172.0820	-12178.9755	-12186.8647	-12196.4718	-12200.8049	-12208.3987	-12217.1086	-12224.8993	-12232.2634	-12238.6098	-12245.8644	-12255.0776	-12263.9188	-12266.3041	-12273.2195	-12280.5726	-12284.6978	-12284.8619	-12285.0917	-12269.0506	-12215.1281	-12212.6442	-12243.3805	-12292.0508	-12323.5749	-12339.1783	-12354.8146	-12366.7414	-12377.2786	-12385.6493	-12390.8249	-12399.8740	-12406.6143	-12414.6239	-12422.3709	-12427.0104	-12434.5713	-12442.0229	-12447.9535	-12451.5644	-12453.9935	-12456.7618	-12456.5430	-12455.3503	-12458.3594	-12469.6516	-12482.8915	-12492.8488	-12506.1544	-12520.7730	-12528.2245	-12538.4006	-12544.2656	-12552.8004	-12560.3723	-12567.5284	-12574.7721	-12577.3435	-12585.5172	-12594.4678	-12598.4726	-12606.3181	-12615.4219	-12622.9282	-12628.6180	-12638.2471	-12643.7290	-12653.0736	-12662.8995	-12666.5433	-12674.5857	-12682.8360	-12689.3246	-12696.0650	-12701.5579	-12706.6569	-12711.3401	-12713.2987	-12710.2240	-12644.3199	-12491.0543	-12362.9226	-12354.3331	-12497.2585	-12642.2190	-12749.4842	-12777.5506	-12786.7310	-12800.1897	-12809.3482	-12814.6551	-12823.5620	-12830.2804
-11904.6687	-11920.7863	-11930.2950	-11942.0468	-11951.7305	-11959.0945	-11965.6926	-11973.4286	-11980.3440	-11988.2114	-11995.0939	-12002.2938	-12007.9946	-12013.6736	-12018.5428	-12020.5890	-12019.5932	-12018.5319	-12011.1350	-12013.8705	-12030.0429	-12053.8310	-12073.4720	-12086.2523	-12094.9732	-12105.2368	-12115.1613	-12120.7418	-12130.3270	-12133.9488	-12141.2691	-12149.9024	-12155.5266	-12161.7198	-12169.0401	-12175.9555	-12186.9413	-12194.6883	-12201.2207	-12208.7926	-12216.2223	-12223.4988	-12233.3576	-12242.1003	-12247.8558	-12254.1694	-12265.5163	-12270.8670	-12274.6311	-12281.7325	-12286.5141	-12289.6217	-12288.1883	-12259.5419	-12124.8997	-11944.5306	-11804.3517	-11916.3329	-12063.3615	-12209.0443	-12333.9590	-12369.1596	-12379.4999	-12388.5271	-12397.4230	-12404.1086	-12410.4988	-12417.4251	-12425.9161	-12432.4814	-12439.0029	-12446.1152	-12452.7133	-12457.3308	-12462.7581	-12466.0845	-12470.4832	-12472.2230	-12476.0308	-12482.1912	-12488.4391	-12501.4712	-12513.1354	-12525.2592	-12533.8487	-12542.6462	-12550.2619	-12556.7614	-12562.1340	-12568.7540	-12576.2493	-12578.7222	-12584.0510	-12593.0563	-12597.9912	-12604.9832	-12614.1307	-12624.8758	-12633.0058	-12642.6020	-12650.6225	-12656.9689	-12665.7554	-12673.2070	-12679.9363	-12687.4973	-12694.8394	-12703.6150	-12707.0289	-12713.5723	-12717.1832	-12721.7898	-12720.5314	-12701.6782	-12579.5100	-12236.7058	-12021.4753	-12070.4958	-12216.3755	-12362.1020	-12508.2224	-12653.4784	-12781.0520	-12819.9839	-12827.6871	-12831.9874	-12837.8852	-12846.1136
-11906.7477	-11925.0866	-11931.6409	-11943.3927	-11953.2515	-11960.5608	-11967.7716	-11975.8687	-11982.4777	-11988.8460	-11996.9760	-12002.8738	-12010.6864	-12018.7835	-12020.7203	-12023.3683	-12028.8393	-12034.1024	-12034.8465	-12042.1230	-12055.0018	-12067.5523	-12078.8008	-12088.5064	-12097.9604	-12105.4666	-12114.4282	-12121.6500	-12126.8365	-12131.9246	-12140.2077	-12146.5213	-12150.2963	-12159.0718	-12166.9830	-12175.0910	-12185.3328	-12191.7011	-12202.3587	-12211.2874	-12217.0539	-12226.9346	-12235.6445	-12242.9319	-12248.4357	-12255.0010	-12263.9844	-12270.4731	-12276.5350	-12281.9732	-12285.1245	-12288.6041	-12284.8291	-12237.8000	-11965.2768	-11659.2927	-11593.2354	-11698.0933	-11844.8921	-11991.1001	-12137.8223	-12281.7434	-12378.8871	-12395.0376	-12402.3688	-12407.4459	-12412.5230	-12419.0445	-12426.2006	-12433.2364	-12439.1451	-12444.1785	-12453.2494	-12459.8585	-12464.4760	-12470.2534	-12475.7135	-12479.9919	-12483.7012	-12491.0871	-12502.7295	-12509.4917	-12517.9171	-12526.3863	-12533.8487	-12541.9349	-12548.0734	-12555.5250	-12560.6459	-12564.9352	-12566.8938	-12571.4129	-12576.5009	-12581.2060	-12588.9858	-12599.8623	-12612.0298	-12621.4838	-12629.9311	-12638.0282	-12646.7272	-12655.7325	-12661.7725	-12670.4605	-12677.9449	-12684.8712	-12690.9331	-12697.2686	-12705.5955	-12709.2830	-12713.7583	-12716.8111	-12716.3844	-12693.1215	-12597.7504	-12412.0088	-12217.3493	-12060.6370	-12155.2202	-12301.9644	-12447.6690	-12593.3298	-12734.4497	-12813.0904	-12822.7304	-12828.3546	-12833.3442	-12839.7562
-11898.8037	-11920.4690	-11926.4215	-11941.9264	-11951.8181	-11958.4380	-11965.3096	-11970.9010	-11979.3374	-11986.1762	-11994.8095	-12002.9832	-12008.0712	-12013.4985	-12019.8121	-12025.8959	-12032.9207	-12039.2233	-12043.7096	-12049.6730	-12059.3786	-12068.1651	-12078.1990	-12087.3028	-12095.3014	-12103.3657	-12110.1389	-12116.3540	-12121.1466	-12127.9964	-12132.5264	-12134.7586	-12139.2010	-12144.8471	-12154.0713	-12165.5058	-12176.0430	-12187.4884	-12199.7545	-12207.6109	-12216.3426	-12225.1620	-12232.2415	-12237.9751	-12245.7659	-12254.0928	-12259.3559	-12265.6586	-12272.3989	-12277.1040	-12280.7586	-12283.7567	-12278.3185	-12236.6402	-12109.5918	-11889.5030	-11763.9098	-11723.3148	-11853.4269	-11999.1535	-12145.3177	-12287.4661	-12369.8709	-12384.0627	-12392.3130	-12398.1233	-12403.1676	-12410.2143	-12419.6245	-12425.1940	-12432.2625	-12438.4886	-12446.3341	-12453.6324	-12459.8147	-12468.1197	-12472.1136	-12478.7664	-12485.8568	-12490.2446	-12500.3222	-12506.1762	-12512.5774	-12522.8957	-12530.4676	-12535.3369	-12542.6024	-12548.0625	-12552.9974	-12557.7243	-12560.5693	-12554.4527	-12552.1439	-12560.2957	-12568.0099	-12586.2941	-12598.7790	-12612.5113	-12626.5281	-12633.5638	-12642.7990	-12650.9289	-12658.6431	-12666.5214	-12673.9182	-12680.2208	-12685.5496	-12693.0449	-12700.4965	-12703.4727	-12709.1517	-12712.7297	-12713.5613	-12707.8277	-12692.8042	-12638.7066	-12536.1575	-12451.8051	-12486.9729	-12609.1302	-12737.6011	-12780.2642	-12795.1126	-12806.0000	-12813.0685	-12817.8065	-12824.9845	-12832.9722
-11887.2379	-11905.0516	-11917.2520	-11928.9929	-11937.1447	-11942.5720	-11949.5421	-11958.1316	-11965.9114	-11973.7460	-11983.2109	-11988.2223	-11995.5316	-12002.0750	-12006.9223	-12014.6255	-12022.8759	-12030.6010	-12037.9322	-12043.7862	-12051.1502	-12060.5713	-12069.6642	-12075.3322	-12082.7071	-12091.2310	-12097.5446	-12104.5475	-12108.0708	-12110.7845	-12114.6908	-12115.0519	-12102.0965	-12109.6465	-12129.4516	-12148.7753	-12158.7983	-12172.0163	-12185.1906	-12193.4409	-12204.7988	-12212.7755	-12218.3998	-12226.0920	-12232.9855	-12241.2796	-12246.0504	-12253.7426	-12261.0629	-12266.5011	-12270.5387	-12274.0402	-12274.4779	-12264.9473	-12240.1198	-12204.8425	-12088.1453	-12036.1814	-12101.1554	-12234.8785	-12331.2891	-12352.1119	-12361.2485	-12369.4879	-12365.5706	-12382.5199	-12391.9629	-12398.9986	-12406.6253	-12414.9850	-12418.5740	-12427.6997	-12437.8649	-12442.0885	-12447.5049	-12455.5254	-12462.6268	-12471.5336	-12479.1384	-12484.0842	-12492.4002	-12499.3156	-12505.5088	-12514.5579	-12521.8453	-12528.1808	-12534.3083	-12537.9958	-12542.7665	-12544.9112	-12537.5472	-12511.7895	-12494.7199	-12461.6639	-12482.9134	-12555.2733	-12584.7841	-12599.6544	-12615.2359	-12623.3221	-12635.7632	-12643.9150	-12651.4104	-12660.1859	-12664.5409	-12670.6794	-12679.7941	-12685.5715	-12694.4455	-12701.1093	-12703.1664	-12708.4295	-12710.0380	-12709.3486	-12707.4338	-12705.7706	-12686.6438	-12705.4533	-12728.2784	-12746.5079	-12764.4639	-12777.4302	-12787.1139	-12797.1041	-12803.1550	-12809.9172	-12814.3925	-12821.8222
-11884.9839	-11906.4085	-11911.5512	-11919.4842	-11931.0391	-11936.4116	-11944.9683	-11953.0545	-11957.5408	-11966.2835	-11974.6213	-11982.2698	-11990.4217	-11996.3632	-12002.6768	-12010.4566	-12016.5076	-12024.4734	-12034.7699	-12041.2367	-12048.2943	-12056.5884	-12062.5409	-12071.0648	-12078.3741	-12084.7861	-12091.3404	-12096.9537	-12100.9476	-12100.8819	-12092.8285	-12053.2511	-11993.8247	-11999.2519	-12087.0730	-12128.6201	-12146.8386	-12165.4292	-12179.3913	-12191.5260	-12197.9600	-12206.7027	-12213.7713	-12221.4635	-12229.6373	-12233.6749	-12241.0170	-12249.3002	-12256.5876	-12262.5182	-12266.2713	-12270.6591	-12273.5916	-12270.6263	-12270.0901	-12270.6810	-12268.9740	-12271.2500	-12299.0319	-12318.0383	-12334.1669	-12347.3630	-12352.8122	-12363.8308	-12373.4927	-12379.3686	-12386.0651	-12390.0809	-12396.4163	-12404.7104	-12408.8684	-12419.4822	-12423.0821	-12433.8710	-12442.1761	-12447.0562	-12455.2081	-12465.5155	-12473.4376	-12476.0090	-12485.1456	-12490.9558	-12500.4207	-12505.8699	-12514.0436	-12521.0903	-12528.4324	-12532.3497	-12534.1989	-12533.5861	-12518.0703	-12410.2033	-12254.8806	-12054.9690	-12147.5389	-12293.8672	-12439.6375	-12567.7801	-12610.6074	-12624.7008	-12630.7517	-12641.0701	-12646.7162	-12651.5964	-12657.9318	-12666.1822	-12673.2836	-12680.5710	-12688.7775	-12692.8370	-12699.3257	-12705.3985	-12707.9371	-12711.8434	-12714.1522	-12716.8111	-12721.2427	-12725.5757	-12736.9227	-12752.2416	-12762.9867	-12775.0120	-12783.4921	-12789.4446	-12797.7715	-12803.3629	-12808.4291	-12814.3816
-11885.9687	-11899.3946	-11906.0911	-11916.1469	-11924.0252	-11933.0962	-11939.4754	-11943.3270	-11951.5664	-11959.0836	-11965.5285	-11976.2189	-11983.6814	-11989.4150	-11999.8537	-12003.2239	-12011.7368	-12022.6351	-12030.1305	-12037.3194	-12045.9636	-12053.1088	-12059.9038	-12068.2964	-12074.8835	-12079.8731	-12087.4669	-12091.7672	-12092.9380	-12089.5021	-12068.5371	-11904.2200	-11716.4541	-11670.9898	-11794.1975	-11940.2195	-12083.2323	-12162.4748	-12183.6915	-12193.8020	-12198.6931	-12206.9981	-12212.9506	-12219.1985	-12229.1120	-12236.3447	-12243.8948	-12248.5561	-12257.1785	-12263.7875	-12268.3065	-12273.3618	-12276.2177	-12278.2419	-12282.1701	-12286.5907	-12291.6241	-12300.0933	-12313.8912	-12326.0041	-12336.6288	-12346.2797	-12353.8517	-12360.1871	-12367.7481	-12374.6416	-12380.4518	-12384.1065	-12390.9672	-12398.4515	-12404.6338	-12409.8860	-12418.4537	-12429.8662	-12437.1099	-12444.9772	-12452.6148	-12459.6834	-12467.2225	-12475.9324	-12483.6137	-12490.2993	-12498.9107	-12503.6049	-12510.0388	-12517.2824	-12523.6726	-12528.2573	-12530.1722	-12528.2464	-12495.7266	-12310.8931	-11936.2803	-11775.6179	-11845.6800	-11993.4855	-12139.7919	-12285.2777	-12430.9714	-12569.4652	-12631.1894	-12640.5121	-12644.6263	-12652.1982	-12658.0631	-12662.9871	-12668.9833	-12676.9382	-12684.6524	-12688.4274	-12697.1373	-12704.1730	-12706.3505	-12712.0404	-12714.8853	-12720.4439	-12729.2632	-12735.9379	-12742.2514	-12753.6203	-12762.4067	-12771.7403	-12777.1895	-12783.2404	-12792.6506	-12797.0712	-12800.9775	-12804.0304
-11901.8675	-11912.9628	-11917.5147	-11927.5704	-11936.0724	-11944.5525	-11950.5159	-11953.8205	-11961.7535	-11969.7740	-11977.0942	-11985.8479	-11993.2885	-12001.7248	-12008.9247	-12016.0042	-12023.2479	-12034.2556	-12043.0859	-12049.5089	-12058.3610	-12065.6703	-12072.5638	-12079.5777	-12087.0183	-12091.9532	-12097.5446	-12100.7506	-12102.1949	-12095.9689	-12024.7360	-11718.7300	-11432.6605	-11416.2255	-11542.7487	-11689.1864	-11835.0443	-11981.7118	-12123.6961	-12202.2602	-12213.5962	-12217.9949	-12221.1790	-12230.1187	-12238.1721	-12242.9647	-12250.8211	-12257.4411	-12264.5206	-12269.9697	-12275.9332	-12282.1701	-12287.0394	-12291.8648	-12297.4234	-12302.2926	-12309.4706	-12319.6796	-12325.5555	-12332.8101	-12343.8287	-12350.5909	-12357.3203	-12365.7238	-12372.7924	-12379.1278	-12382.3995	-12384.3582	-12392.6960	-12394.3811	-12396.9744	-12410.7067	-12419.5150	-12429.6912	-12440.9396	-12448.3583	-12456.4008	-12463.0973	-12472.3543	-12480.5390	-12485.5395	-12494.7090	-12502.3356	-12506.9094	-12514.3281	-12518.7268	-12525.0075	-12530.3582	-12531.1461	-12528.3449	-12511.5488	-12391.9957	-12124.4839	-11919.9438	-11886.4501	-11999.5583	-12145.4599	-12291.4928	-12436.9020	-12573.7217	-12630.1390	-12636.7152	-12643.1819	-12650.2396	-12656.3343	-12662.3634	-12668.2721	-12675.3954	-12681.4573	-12687.4973	-12693.3294	-12701.7986	-12707.3572	-12711.7887	-12716.5485	-12724.8973	-12731.7471	-12737.0758	-12744.4508	-12751.9133	-12761.4876	-12766.7289	-12774.2023	-12781.1067	-12785.8447	-12793.8543	-12797.4761	-12797.5089
-11894.8427	-11907.7106	-11912.9190	-11922.5590	-11929.4196	-11934.9673	-11941.1495	-11944.3665	-11947.3427	-11955.8010	-11960.9656	-11970.7916	-11984.1956	-11993.4964	-12002.7315	-12013.6626	-12018.6632	-12029.1457	-12037.6695	-12045.2196	-12054.5532	-12061.5561	-12069.2593	-12074.6975	-12082.3132	-12088.5392	-12093.2334	-12097.1725	-12100.1160	-12092.6206	-12041.4883	-11866.8310	-11665.5187	-11462.7621	-11505.0095	-11651.2831	-11796.7579	-11942.7252	-12085.8256	-12187.2805	-12205.7288	-12210.3464	-12216.3755	-12223.5535	-12230.8628	-12237.2201	-12244.3215	-12249.9020	-12255.9420	-12263.7765	-12268.8099	-12275.2110	-12282.1920	-12290.4314	-12292.8715	-12300.6841	-12308.4858	-12315.9155	-12323.9360	-12331.3110	-12339.1783	-12345.0105	-12353.8626	-12358.6115	-12365.8004	-12370.6587	-12373.4927	-12374.6197	-12372.6501	-12372.9893	-12368.3171	-12385.6493	-12402.3797	-12416.3856	-12431.6717	-12441.6727	-12449.2337	-12459.2566	-12465.3733	-12474.1926	-12481.6660	-12488.4720	-12498.9217	-12502.3246	-12508.1677	-12514.5360	-12520.6088	-12526.2002	-12526.6817	-12527.6993	-12518.8362	-12503.4736	-12474.1379	-12334.1340	-12209.9196	-12248.7531	-12377.0489	-12518.8800	-12600.1030	-12614.6997	-12620.6960	-12625.0290	-12633.5420	-12639.2865	-12646.7928	-12654.6055	-12659.6826	-12666.7949	-12675.1875	-12679.8379	-12686.1843	-12692.3118	-12701.4485	-12706.3724	-12712.3796	-12720.4330	-12726.3198	-12735.3361	-12740.2053	-12747.5365	-12754.6707	-12762.0457	-12769.5519	-12774.6728	-12780.0563	-12786.3152	-12787.6610	-12786.6434
-11879.3487	-11889.8750	-11894.8865	-11904.3623	-11911.6278	-11915.5779	-11919.1013	-11919.7031	-11914.4837	-11908.2030	-11924.0142	-11942.4954	-11953.7439	-11969.9053	-11985.3446	-11992.4678	-12004.4932	-12013.3891	-12019.1884	-12030.4368	-12035.5249	-12042.7138	-12051.0736	-12057.9999	-12065.0685	-12068.9310	-12075.6714	-12082.4007	-12087.0949	-12080.8141	-12066.0533	-12043.8409	-11990.5968	-11823.8286	-11803.4326	-11871.4595	-12009.3734	-12130.2832	-12162.5076	-12175.1895	-12181.7985	-12188.4513	-12196.2639	-12205.2474	-12211.1014	-12217.1852	-12225.5778	-12232.7776	-12240.6997	-12245.3282	-12251.9700	-12259.1043	-12266.8403	-12272.7381	-12281.3714	-12288.5275	-12295.0599	-12302.9710	-12310.8821	-12315.3137	-12323.7719	-12333.0398	-12338.2811	-12344.6931	-12350.4706	-12356.0620	-12357.5391	-12350.6456	-12337.6574	-12289.9062	-12238.4785	-12314.8432	-12377.0489	-12398.5719	-12416.8671	-12430.0522	-12438.2041	-12449.0915	-12455.0768	-12461.8827	-12471.6321	-12476.9828	-12483.8435	-12491.5467	-12498.3308	-12503.9331	-12510.3233	-12516.3743	-12520.4885	-12522.0204	-12522.7973	-12520.4556	-12515.6958	-12495.5077	-12508.7039	-12537.4159	-12546.9464	-12578.4377	-12593.2861	-12602.3133	-12608.3095	-12615.3891	-12622.9719	-12630.9268	-12637.3498	-12645.2500	-12652.0450	-12657.8771	-12664.1907	-12669.9681	-12678.5358	-12685.3527	-12692.3118	-12700.8795	-12705.8253	-12712.8939	-12721.1223	-12727.6219	-12733.8698	-12741.3323	-12749.7796	-12756.2245	-12761.6408	-12770.8212	-12774.6947	-12777.4959	-12778.7214	-12772.7798
-11871.8424	-11880.2022	-11886.1328	-11897.3156	-11902.9836	-11903.6839	-11904.0012	-11899.5368	-11859.7405	-11783.5618	-11826.6736	-11893.0263	-11937.7575	-11958.7663	-11974.1508	-11984.5896	-11995.1596	-12003.4537	-12012.2949	-12021.1361	-12027.7341	-12034.4745	-12042.1558	-12049.0602	-12057.4638	-12061.6765	-12068.8326	-12074.2380	-12076.5358	-12079.0415	-12078.2865	-12076.4701	-12068.3183	-12058.0109	-12085.5739	-12109.5043	-12129.3313	-12141.7615	-12153.5570	-12163.1313	-12172.6181	-12181.2295	-12186.2301	-12193.8786	-12201.5927	-12206.6370	-12212.6552	-12221.5292	-12227.4488	-12236.2134	-12242.2206	-12248.3920	-12259.0167	-12265.8446	-12271.1843	-12279.1283	-12288.2102	-12296.4386	-12302.2598	-12309.4816	-12318.1586	-12326.8904	-12331.9456	-12336.0380	-12341.5309	-12344.4087	-12343.7740	-12321.2552	-12249.5190	-12028.2047	-11807.9189	-11881.2526	-12027.0667	-12172.7604	-12316.7471	-12415.4774	-12433.1270	-12443.7080	-12452.0020	-12458.6220	-12465.3842	-12470.6911	-12475.7026	-12482.7930	-12490.3759	-12497.5320	-12503.4517	-12510.4218	-12513.7263	-12516.1992	-12519.7225	-12523.5194	-12526.8130	-12529.9424	-12538.8493	-12552.5597	-12563.4252	-12577.2341	-12586.9397	-12592.7280	-12600.2343	-12608.0907	-12615.3891	-12621.5823	-12627.5348	-12633.7061	-12637.1966	-12644.2433	-12654.0146	-12659.7154	-12668.3159	-12677.4306	-12687.2566	-12692.9136	-12701.1311	-12708.9547	-12714.4258	-12723.9235	-12728.2675	-12736.4631	-12743.2143	-12749.2653	-12757.7673	-12763.1836	-12767.4073	-12770.8321	-12771.0947	-12753.2592
-11888.0367	-11897.7752	-11904.3295	-11910.3367	-11912.8314	-11915.2715	-11908.4546	-11877.5980	-11686.0898	-11444.8171	-11435.5820	-11579.5906	-11725.9737	-11870.5513	-11979.2170	-12005.4014	-12013.3125	-12021.4096	-12027.9420	-12036.0282	-12042.2543	-12048.4803	-12056.3367	-12064.0947	-12070.5286	-12077.6628	-12081.9412	-12087.9265	-12092.4456	-12094.1088	-12096.3081	-12101.1554	-12105.9590	-12111.3753	-12121.8469	-12133.3799	-12146.0508	-12157.2007	-12165.2541	-12172.1257	-12180.3870	-12186.5911	-12193.1783	-12200.6845	-12206.9543	-12212.1956	-12218.8265	-12224.5930	-12233.7077	-12238.8505	-12248.4139	-12254.8369	-12263.0872	-12273.1429	-12280.0802	-12287.2144	-12294.5456	-12301.9644	-12310.2147	-12315.6201	-12323.8813	-12329.1445	-12336.5194	-12341.5747	-12344.3649	-12348.2821	-12344.9667	-12284.1944	-12055.4504	-11781.4719	-11610.1300	-11714.9550	-11862.4541	-12008.1478	-12154.1588	-12298.9334	-12419.4166	-12448.4787	-12455.6348	-12461.9265	-12468.4480	-12475.0898	-12479.7730	-12486.3602	-12493.6476	-12499.2390	-12507.6862	-12513.6169	-12517.8624	-12520.4119	-12527.3601	-12534.1442	-12538.6523	-12543.5762	-12550.9840	-12560.8100	-12571.0737	-12581.2389	-12585.8892	-12594.7085	-12602.4993	-12607.2372	-12612.8833	-12618.2668	-12623.3111	-12627.9943	-12629.3402	-12636.8136	-12645.6877	-12653.8395	-12666.5870	-12673.4149	-12684.6743	-12691.3818	-12697.8813	-12707.1274	-12713.1674	-12719.4044	-12726.2323	-12732.4692	-12740.5445	-12746.4204	-12753.4671	-12758.9819	-12763.9167	-12769.1033	-12768.0091	-12754.1674
-11903.3447	-11914.1336	-11920.1408	-11924.3206	-11927.4391	-11927.5376	-11919.2216	-11859.4670	-11567.5325	-11250.1796	-11232.1361	-11366.9971	-11513.1176	-11658.5596	-11804.8660	-11946.7956	-12025.8740	-12036.7942	-12043.6330	-12051.4784	-12057.2121	-12062.2892	-12069.7408	-12075.4963	-12085.8475	-12089.6991	-12094.4808	-12101.4290	-12105.6745	-12110.0185	-12114.5704	-12121.2670	-12125.6766	-12130.9835	-12142.1882	-12150.7668	-12158.9952	-12169.0510	-12174.1719	-12182.0064	-12189.8738	-12195.3339	-12201.9429	-12207.6765	-12210.9920	-12214.4168	-12219.7566	-12224.1334	-12233.4451	-12243.6650	-12251.1494	-12263.3388	-12272.3770	-12281.2838	-12288.5056	-12294.5894	-12303.7260	-12309.9630	-12316.8565	-12324.7895	-12332.6678	-12338.0732	-12344.3539	-12347.9758	-12352.8231	-12355.4601	-12351.7508	-12317.6115	-12166.5781	-11997.6106	-11798.7385	-11788.0590	-11924.9115	-12069.6751	-12215.4016	-12357.5501	-12442.8545	-12456.1819	-12462.0797	-12467.1021	-12470.7677	-12478.3615	-12484.2702	-12489.2707	-12495.8250	-12500.7599	-12510.0169	-12516.8338	-12523.3991	-12524.5370	-12533.6190	-12540.2827	-12543.7513	-12550.0868	-12557.7572	-12564.7054	-12573.0761	-12582.7051	-12587.6400	-12597.2690	-12604.4908	-12607.5108	-12612.5332	-12615.0389	-12620.8273	-12618.6498	-12618.5951	-12620.2802	-12634.0562	-12646.7819	-12656.7610	-12669.3882	-12681.0087	-12689.9921	-12700.1135	-12706.4599	-12712.4015	-12721.4834	-12725.6086	-12733.2899	-12742.1201	-12747.0988	-12752.5261	-12757.2093	-12765.0219	-12769.6176	-12770.4273	-12764.2231
-11895.7399	-11906.3428	-11911.8248	-11920.2064	-11921.9243	-11922.5480	-11913.3238	-11857.7272	-11653.6575	-11416.1708	-11269.2954	-11376.9106	-11521.4664	-11667.2366	-11813.3899	-11952.3542	-12018.2474	-12030.5572	-12035.7985	-12043.4798	-12048.6116	-12054.4656	-12061.2825	-12069.7189	-12075.7480	-12082.1928	-12087.4560	-12093.1240	-12100.6849	-12106.4842	-12111.7583	-12118.7065	-12125.5453	-12131.6619	-12138.5992	-12146.3134	-12154.3120	-12161.5119	-12166.9501	-12174.7409	-12183.6915	-12189.4251	-12192.2154	-12195.4761	-12195.8700	-12195.1916	-12197.7302	-12198.2554	-12213.6947	-12230.1406	-12241.5313	-12253.9396	-12262.2556	-12273.3946	-12283.1768	-12287.2144	-12296.7122	-12305.1704	-12309.7332	-12318.4541	-12323.0497	-12328.6740	-12336.7601	-12343.0956	-12347.9758	-12350.4049	-12350.6019	-12342.4063	-12321.1349	-12232.4165	-12166.1951	-12130.1738	-12101.8448	-12225.4246	-12363.3275	-12425.9927	-12438.4448	-12442.6356	-12448.8617	-12457.2871	-12462.3532	-12466.6316	-12475.0679	-12483.8544	-12488.5923	-12494.5229	-12500.4864	-12509.3494	-12515.7177	-12519.7772	-12526.5285	-12534.8882	-12541.3003	-12547.2637	-12552.5378	-12560.1207	-12570.4937	-12576.9933	-12582.9021	-12591.0211	-12599.6325	-12603.5169	-12606.0883	-12608.1673	-12603.1668	-12593.1985	-12547.9968	-12541.5848	-12581.6437	-12623.0595	-12643.7619	-12663.3700	-12676.9054	-12685.4183	-12694.0844	-12700.9998	-12708.3420	-12716.1546	-12722.7198	-12728.8474	-12735.7847	-12742.9627	-12748.6307	-12754.6050	-12760.1198	-12765.9301	-12767.7465	-12768.1404
-11870.4200	-11880.2678	-11886.0671	-11892.3041	-11896.5168	-11900.2043	-11897.9721	-11882.2593	-11841.3797	-11790.6632	-11692.7864	-11607.6571	-11699.0671	-11842.7256	-11956.0855	-11982.7951	-11992.8071	-11999.5036	-12006.7691	-12013.6736	-12020.6109	-12027.3512	-12034.7371	-12042.3309	-12049.8262	-12055.1331	-12061.7202	-12072.6623	-12078.0349	-12083.2433	-12090.6948	-12096.6035	-12105.3353	-12114.0780	-12118.9473	-12126.1581	-12133.4236	-12140.1639	-12147.7249	-12154.5199	-12162.5733	-12168.4820	-12169.9045	-12172.4868	-12167.2456	-12146.6198	-12106.5389	-12102.7092	-12157.3430	-12197.8943	-12219.9973	-12233.5873	-12243.9495	-12258.8416	-12266.6543	-12272.1800	-12280.6164	-12287.6959	-12295.4976	-12302.0957	-12308.3983	-12314.2523	-12322.1744	-12329.0788	-12333.4885	-12336.6398	-12339.1346	-12339.1674	-12337.3729	-12331.5079	-12318.1805	-12329.4180	-12362.9664	-12384.6864	-12401.6904	-12414.0549	-12418.2348	-12426.4632	-12433.7069	-12442.3511	-12448.0082	-12452.6039	-12459.7600	-12467.8571	-12472.5403	-12481.3159	-12487.5966	-12495.0153	-12502.3356	-12509.1744	-12515.7834	-12524.0556	-12531.3540	-12537.2627	-12544.7799	-12553.6101	-12561.4775	-12568.3929	-12575.1769	-12582.5738	-12590.1019	-12594.0083	-12595.3322	-12595.3104	-12584.2479	-12517.6873	-12340.8087	-12246.3239	-12341.1479	-12484.9815	-12607.8828	-12653.1830	-12670.2198	-12680.6585	-12688.8870	-12697.1920	-12702.8819	-12710.0270	-12716.9424	-12722.4791	-12730.5325	-12738.6734	-12744.2757	-12749.7686	-12755.0537	-12762.1441	-12766.2036	-12767.8997
-11848.7000	-11858.0773	-11863.4061	-11871.7549	-11876.6132	-11879.4910	-11881.3073	-11882.5110	-11879.0642	-11873.3306	-11870.2230	-11891.1661	-11917.9305	-11935.8973	-11950.1877	-11960.7358	-11968.6907	-11978.1884	-11986.3622	-11993.5730	-12000.0945	-12006.6925	-12015.8839	-12023.2588	-12029.0363	-12035.6781	-12043.4798	-12052.8900	-12060.6698	-12069.2484	-12075.0477	-12083.7028	-12089.6553	-12096.9318	-12105.0837	-12111.3753	-12118.6081	-12126.2566	-12134.7038	-12140.8533	-12147.3310	-12150.8215	-12153.7649	-12153.6008	-12136.2248	-12042.1996	-11775.7163	-11746.3807	-11890.8598	-12035.6453	-12168.4164	-12218.2903	-12239.6602	-12248.2060	-12254.1147	-12263.2075	-12271.3266	-12277.8152	-12283.8771	-12290.2126	-12297.4125	-12305.4768	-12312.5016	-12318.2462	-12322.4589	-12330.1292	-12333.2368	-12335.2611	-12337.1541	-12342.2202	-12350.7660	-12357.0358	-12369.9693	-12382.5746	-12391.5033	-12400.6071	-12409.0106	-12415.8823	-12423.7824	-12431.8139	-12436.7050	-12440.9396	-12448.7851	-12454.4531	-12457.9436	-12466.4237	-12475.4618	-12482.9025	-12490.4853	-12499.5453	-12508.0692	-12516.1335	-12522.8957	-12529.9205	-12536.9344	-12545.4255	-12552.6363	-12559.6283	-12567.5503	-12574.6298	-12579.9258	-12583.7336	-12586.9069	-12584.1823	-12563.8738	-12381.7321	-12013.5313	-11824.3757	-11898.0159	-12045.9308	-12191.8215	-12336.5851	-12481.7535	-12620.9914	-12686.1514	-12692.6510	-12699.9713	-12707.0946	-12711.4823	-12717.0081	-12724.3393	-12730.7623	-12739.0782	-12744.1225	-12750.0860	-12757.6251	-12760.7654	-12765.5143
-11855.9436	-11866.8310	-11871.4704	-11879.1518	-11883.2222	-11887.3911	-11891.9759	-11894.4269	-11896.3089	-11900.9921	-11911.8248	-11922.5152	-11933.0962	-11944.5416	-11956.2168	-11964.9267	-11974.9386	-11983.6923	-11988.8241	-11995.5863	-12001.0574	-12007.3819	-12012.9076	-12019.5385	-12026.1257	-12034.6167	-12042.3746	-12052.3210	-12063.0661	-12070.2550	-12078.6367	-12087.2262	-12093.5288	-12100.7506	-12107.3596	-12115.5333	-12121.6390	-12129.9222	-12136.7828	-12142.5712	-12151.7844	-12153.8306	-12155.7892	-12149.6288	-12114.3297	-11858.3509	-11519.1357	-11459.9719	-11564.0638	-11708.7618	-11854.1382	-11999.7334	-12142.0569	-12244.5841	-12263.6671	-12269.1381	-12274.7405	-12281.7762	-12288.6916	-12294.0861	-12301.1875	-12309.5253	-12317.8304	-12323.5312	-12327.4047	-12333.2696	-12339.5504	-12343.1503	-12347.5819	-12354.2565	-12359.4978	-12366.5992	-12377.1145	-12387.4985	-12397.6637	-12404.9840	-12410.3675	-12415.1929	-12424.7235	-12430.4133	-12433.5209	-12436.5518	-12441.3445	-12447.9754	-12451.2361	-12460.3290	-12467.1130	-12477.6065	-12489.1066	-12496.9193	-12506.3075	-12514.8314	-12522.3158	-12529.5704	-12536.9016	-12545.6552	-12552.7129	-12559.6064	-12566.4342	-12571.2925	-12579.3678	-12582.5410	-12582.8692	-12581.0638	-12552.5925	-12419.0992	-12210.9810	-11998.7814	-11936.3350	-12046.5436	-12192.2920	-12337.2416	-12482.2131	-12620.2911	-12681.8074	-12690.8456	-12697.2358	-12701.0983	-12707.2806	-12713.6379	-12719.9953	-12728.7818	-12735.6206	-12740.9165	-12747.6787	-12754.4628	-12760.6779	-12764.8578
-11851.5887	-11862.1915	-11867.3015	-11875.6941	-11881.5152	-11886.3188	-11893.0154	-11897.2937	-11902.8851	-11909.8443	-11917.4818	-11926.5090	-11936.7180	-11944.7823	-11954.0831	-11963.7668	-11971.5466	-11980.8583	-11987.4345	-11991.6581	-11994.6672	-11998.3547	-12006.3424	-12011.4523	-12016.7811	-12028.2484	-12034.6495	-12047.9551	-12057.6717	-12068.1432	-12078.8227	-12083.6263	-12091.5702	-12100.8053	-12106.9985	-12114.0452	-12121.1685	-12127.9635	-12135.5245	-12140.9846	-12147.1340	-12151.1388	-12153.0975	-12145.5474	-12102.3044	-11939.6833	-11664.8075	-11523.9721	-11558.2427	-11703.3674	-11848.5905	-11993.8575	-12136.9360	-12238.8614	-12258.7760	-12263.6343	-12269.0068	-12277.7933	-12282.5750	-12288.8886	-12296.4933	-12302.1285	-12312.6985	-12318.6401	-12322.7981	-12328.0393	-12334.6702	-12340.8853	-12346.5861	-12353.9173	-12359.3774	-12367.8247	-12375.5279	-12383.2530	-12393.2869	-12401.0339	-12404.6995	-12413.2124	-12419.7886	-12423.7496	-12428.4109	-12428.6298	-12425.5113	-12428.1812	-12432.2625	-12444.1785	-12458.1077	-12470.4066	-12481.3487	-12492.5096	-12502.7076	-12510.7391	-12519.5256	-12525.1279	-12532.1090	-12540.7970	-12547.7561	-12555.2077	-12562.3310	-12566.3358	-12572.2992	-12577.9344	-12580.6042	-12580.6152	-12572.0585	-12547.8327	-12501.1101	-12368.1201	-12197.1284	-12274.9921	-12414.7443	-12557.7462	-12649.2220	-12664.6940	-12672.1128	-12678.2622	-12684.6414	-12693.3623	-12699.4898	-12706.1973	-12711.5918	-12718.1461	-12724.1642	-12732.1519	-12739.0673	-12747.2082	-12754.2440	-12759.4196
-11834.8145	-11846.3802	-11851.5011	-11859.4998	-11867.6079	-11874.5889	-11879.9724	-11887.4677	-11895.6196	-11901.7909	-11909.3519	-11917.5584	-11927.0890	-11932.6147	-11940.4602	-11950.4175	-11958.5474	-11965.1236	-11970.0475	-11973.8992	-11978.4511	-11978.4620	-11974.1071	-11977.0614	-11990.6186	-11997.6763	-12015.1617	-12028.9597	-12040.6020	-12055.2863	-12062.2892	-12068.2198	-12078.4725	-12085.5083	-12092.2486	-12098.1354	-12105.1274	-12113.4106	-12120.2384	-12127.4492	-12133.5440	-12138.7743	-12140.7986	-12139.3761	-12130.1082	-12100.6631	-12017.3829	-11900.0949	-11841.0405	-11928.9272	-12072.7170	-12188.7796	-12218.6405	-12229.1667	-12237.3952	-12246.2254	-12251.9372	-12260.4282	-12267.6281	-12272.9569	-12279.0188	-12286.3828	-12296.6793	-12301.9644	-12307.0415	-12314.5477	-12322.3932	-12330.3809	-12335.7206	-12342.2421	-12351.3569	-12357.7252	-12364.4108	-12372.7814	-12379.8719	-12386.5903	-12395.4534	-12399.0752	-12406.3408	-12412.2167	-12413.3109	-12406.3298	-12393.8121	-12364.4545	-12356.0510	-12393.1556	-12430.8948	-12452.8336	-12473.0765	-12481.1080	-12491.3607	-12501.1538	-12508.8133	-12516.7682	-12522.7863	-12530.2488	-12536.4311	-12545.1410	-12549.4631	-12554.6277	-12563.2501	-12569.9029	-12572.5399	-12574.3125	-12574.6627	-12570.4719	-12558.7638	-12552.1329	-12552.1548	-12587.6071	-12612.8505	-12631.0472	-12643.1491	-12652.8547	-12661.8272	-12669.0162	-12676.6756	-12683.9740	-12690.2766	-12695.1021	-12700.7153	-12709.1407	-12715.3449	-12720.7393	-12729.2741	-12739.2205	-12746.0483	-12753.9923
-11823.7849	-11833.8625	-11840.3074	-11850.1553	-11858.1320	-11866.4589	-11873.3743	-11880.5414	-11886.1437	-11894.8427	-11903.9574	-11910.5883	-11918.3463	-11925.9729	-11933.5120	-11940.0116	-11947.9336	-11952.5840	-11958.3614	-11961.8848	-11963.9419	-11953.4047	-11916.3657	-11887.3802	-11940.2523	-11967.2464	-11991.3408	-12017.7112	-12029.5505	-12041.0288	-12050.7563	-12059.7178	-12069.1389	-12076.3498	-12084.7642	-12090.2462	-12096.4941	-12105.8277	-12113.3340	-12118.4986	-12125.2937	-12132.9969	-12135.1962	-12136.8594	-12136.3670	-12132.6577	-12125.5563	-12114.7783	-12132.9969	-12161.2165	-12185.8909	-12199.6779	-12210.7950	-12220.0301	-12227.3504	-12237.5593	-12244.6060	-12251.3135	-12258.6228	-12263.5358	-12269.4555	-12277.6401	-12284.2054	-12290.8691	-12298.7693	-12305.8269	-12313.8912	-12322.9841	-12330.2058	-12337.3182	-12347.0457	-12350.9192	-12358.7318	-12366.6977	-12372.4970	-12380.3205	-12386.0542	-12391.4705	-12397.2370	-12399.2065	-12399.4363	-12387.5314	-12328.5426	-12168.9306	-12008.3339	-12096.8771	-12242.9209	-12383.9424	-12457.0901	-12478.0332	-12487.7498	-12496.7442	-12503.2328	-12510.9142	-12516.4290	-12523.8805	-12531.7041	-12538.2146	-12543.5544	-12553.2162	-12559.5407	-12563.1844	-12569.7935	-12572.4743	-12574.8159	-12577.4638	-12578.9082	-12582.6394	-12591.9621	-12603.9108	-12616.3410	-12629.9311	-12638.6629	-12647.2961	-12655.5246	-12661.8710	-12668.9396	-12676.2598	-12679.9145	-12685.3855	-12691.8960	-12697.8704	-12707.0617	-12715.7060	-12722.0414	-12730.9373	-12741.2557	-12747.8319
-11826.0171	-11836.1822	-11840.5262	-11850.4398	-11861.9508	-11866.7544	-11876.3615	-11883.4192	-11889.1528	-11898.0378	-11906.9227	-11915.0636	-11922.5808	-11929.3102	-11936.5429	-11944.0054	-11951.4460	-11956.5341	-11959.9808	-11963.0665	-11960.5936	-11929.9339	-11752.3441	-11636.5332	-11610.0643	-11738.6774	-11883.2222	-12001.1011	-12033.9383	-12047.4299	-12058.8753	-12066.6660	-12074.9601	-12081.4269	-12088.6705	-12094.6668	-12102.6217	-12109.8763	-12116.8245	-12124.4183	-12129.1781	-12135.7433	-12139.6387	-12142.2648	-12144.5189	-12147.0793	-12151.0404	-12158.5904	-12165.7903	-12181.4155	-12193.4737	-12201.0128	-12211.9877	-12219.7566	-12226.5625	-12235.3818	-12242.0784	-12248.5233	-12252.7688	-12257.3426	-12265.1005	-12271.5235	-12277.0164	-12286.0765	-12296.6246	-12303.6057	-12311.4511	-12320.9160	-12329.4180	-12336.3443	-12343.6427	-12352.5496	-12359.4321	-12363.3603	-12371.2277	-12378.5479	-12383.3953	-12389.2711	-12395.1580	-12396.6023	-12395.8473	-12369.4988	-12213.1257	-11850.9321	-11709.9326	-11772.6526	-11918.8058	-12064.6199	-12210.8497	-12355.1209	-12471.0303	-12500.7490	-12505.3118	-12511.9755	-12517.1730	-12522.1954	-12530.8397	-12537.0657	-12544.2109	-12550.5792	-12557.1554	-12563.0531	-12569.2463	-12572.2445	-12575.3192	-12582.4972	-12585.9658	-12590.7803	-12598.9212	-12609.7430	-12617.8948	-12626.7251	-12636.5510	-12643.5868	-12649.2985	-12657.3957	-12662.6698	-12666.3682	-12673.0100	-12675.6471	-12677.4197	-12685.2542	-12693.1981	-12701.7986	-12712.0842	-12722.8949	-12729.2413	-12742.1858
-11828.5447	-11837.1561	-11844.7499	-11854.7072	-11864.1502	-11875.6065	-11883.8568	-11891.3850	-11900.8499	-11907.1306	-11913.1378	-11921.8149	-11930.7546	-11936.2913	-11944.0164	-11952.6934	-11959.6963	-11964.4999	-11969.1831	-11973.2536	-11965.7035	-11906.9008	-11642.0261	-11341.2176	-11312.3305	-11427.3755	-11573.3974	-11719.1349	-11864.8395	-12003.9242	-12063.7336	-12073.7893	-12083.5059	-12088.3532	-12097.9385	-12104.1317	-12108.8477	-12116.2336	-12123.2147	-12130.2942	-12135.1744	-12143.8624	-12150.1431	-12154.9795	-12158.4591	-12163.3721	-12169.5106	-12175.0582	-12182.2034	-12190.5522	-12200.9362	-12209.5476	-12214.9092	-12224.0240	-12232.7010	-12238.9271	-12243.7416	-12249.5847	-12255.2198	-12255.4496	-12260.9425	-12264.5425	-12269.2476	-12282.4109	-12289.7421	-12303.4744	-12314.2195	-12319.7124	-12329.6150	-12336.3553	-12346.7721	-12353.3483	-12359.7166	-12369.5973	-12374.4665	-12380.1455	-12388.0456	-12392.4006	-12396.6461	-12402.0953	-12401.4716	-12361.9597	-12222.5140	-11985.1695	-11842.2989	-11837.2217	-11973.2645	-12118.2689	-12264.1814	-12405.5748	-12480.4077	-12494.3479	-12500.1581	-12507.7847	-12513.8029	-12519.5693	-12527.1960	-12535.1071	-12539.3526	-12545.9944	-12554.8903	-12558.4575	-12565.5698	-12571.3035	-12576.7636	-12584.4777	-12589.9159	-12595.3432	-12602.2039	-12608.7472	-12617.7854	-12626.0029	-12632.1195	-12639.6914	-12647.3180	-12653.4456	-12657.0127	-12662.4290	-12664.9785	-12663.8515	-12661.4552	-12662.2868	-12667.2545	-12681.7199	-12696.1197	-12706.7116	-12723.2670	-12732.7975
-11816.7053	-11824.3757	-11832.1118	-11846.8070	-11855.4075	-11867.0826	-11877.9591	-11888.4416	-11898.9241	-11905.0188	-11911.0698	-11918.7839	-11928.4567	-11935.4159	-11941.0292	-11949.5749	-11957.7487	-11963.1322	-11966.7102	-11970.2773	-11958.2520	-11910.7415	-11700.7960	-11489.0012	-11355.1031	-11421.5981	-11568.0468	-11713.8718	-11859.6092	-11998.3437	-12059.4005	-12068.6247	-12076.6452	-12084.3484	-12090.6511	-12096.2862	-12102.4028	-12109.0885	-12115.9054	-12123.5758	-12130.9069	-12137.2096	-12144.8471	-12149.7382	-12153.2178	-12160.8992	-12167.8693	-12174.4783	-12182.7833	-12190.5850	-12197.3800	-12205.2802	-12211.5938	-12219.5706	-12228.5649	-12233.0950	-12239.5179	-12241.6188	-12242.4176	-12243.6869	-12240.9951	-12239.1678	-12249.6941	-12264.4330	-12279.2158	-12292.9700	-12305.2798	-12317.1301	-12324.8880	-12334.4733	-12342.3515	-12348.9058	-12356.1276	-12363.2181	-12369.1924	-12375.4623	-12383.7892	-12387.6736	-12393.6261	-12397.4668	-12399.0643	-12390.6280	-12357.7908	-12290.8034	-12182.5207	-12106.8453	-12184.6763	-12328.9037	-12438.3245	-12466.0188	-12477.4533	-12487.1152	-12494.2056	-12500.2019	-12507.8504	-12515.5098	-12521.7796	-12528.6184	-12533.2907	-12537.7769	-12547.7889	-12554.1135	-12560.3067	-12566.8063	-12574.8596	-12581.4686	-12588.3293	-12591.2837	-12598.8118	-12607.8500	-12614.0432	-12621.1884	-12629.1104	-12635.2927	-12642.3503	-12646.6615	-12651.9903	-12655.8857	-12653.4018	-12643.5430	-12609.8195	-12579.8273	-12622.7312	-12655.9951	-12681.1290	-12695.6382	-12715.6732	-12727.0967
-11787.0633	-11788.0590	-11802.3712	-11819.7254	-11832.2321	-11847.0258	-11859.6530	-11869.4461	-11880.1584	-11888.6495	-11895.4883	-11904.2638	-11912.7330	-11918.3025	-11925.1632	-11931.7393	-11939.9350	-11947.4740	-11952.2010	-11955.3523	-11951.5664	-11938.5563	-11906.5616	-11838.5348	-11726.7834	-11661.9844	-11746.6980	-11891.1224	-12002.6659	-12031.3341	-12039.1248	-12047.6706	-12058.5908	-12065.6484	-12070.0143	-12077.1704	-12085.7271	-12092.9927	-12100.4223	-12104.7335	-12113.7717	-12121.1028	-12127.7337	-12132.1653	-12138.1397	-12147.8015	-12155.9424	-12161.8402	-12168.7118	-12177.3342	-12184.7201	-12190.9789	-12201.4286	-12206.9106	-12212.0752	-12220.2927	-12222.7766	-12224.5273	-12220.3693	-12202.8511	-12172.7166	-12165.3198	-12195.9247	-12225.2495	-12258.1961	-12274.6967	-12290.7050	-12302.6865	-12311.4402	-12319.8328	-12330.2606	-12337.2088	-12344.0476	-12350.3940	-12354.5738	-12364.2685	-12370.5821	-12377.9242	-12383.0670	-12389.3696	-12393.0571	-12391.5580	-12387.3672	-12381.2397	-12361.5658	-12374.9480	-12408.8793	-12426.9775	-12445.1961	-12456.3898	-12463.9617	-12473.4047	-12481.9396	-12488.5376	-12494.6871	-12501.7119	-12507.1173	-12513.1682	-12521.6812	-12525.9923	-12533.8706	-12546.1805	-12551.5749	-12556.7614	-12564.5194	-12572.6931	-12578.2188	-12585.6157	-12593.4283	-12597.4441	-12606.8542	-12615.3015	-12621.4181	-12627.6989	-12633.7280	-12639.8665	-12644.7576	-12646.8585	-12639.1443	-12605.8366	-12479.6636	-12279.1830	-12292.4557	-12437.0661	-12581.1513	-12680.9977	-12706.8210	-12723.7265
-11710.4907	-11739.4106	-11762.7062	-11793.6613	-11814.4622	-11832.8340	-11848.2185	-11859.2700	-11869.5665	-11877.1056	-11884.7103	-11893.4093	-11901.2985	-11907.3276	-11913.6849	-11921.4319	-11928.2488	-11937.0244	-11941.4340	-11945.2966	-11948.0759	-11947.1348	-11942.8018	-11933.8512	-11934.2998	-11953.8095	-11977.8383	-11995.2800	-12006.6707	-12017.6674	-12026.6071	-12036.3018	-12045.3837	-12052.6930	-12058.8315	-12062.7488	-12070.1675	-12079.9935	-12085.6068	-12092.6425	-12098.2996	-12107.6113	-12118.4111	-12123.9368	-12130.4364	-12136.7610	-12145.6350	-12152.2768	-12158.8421	-12168.5148	-12177.1263	-12183.1116	-12189.7206	-12196.3843	-12204.4596	-12210.2151	-12212.4582	-12210.6637	-12199.8529	-12109.0009	-11871.9190	-11872.9148	-11945.7561	-12087.6529	-12215.6642	-12265.8227	-12281.8309	-12294.6003	-12305.5205	-12315.2043	-12321.2333	-12328.6521	-12336.4319	-12342.9971	-12348.7964	-12355.6899	-12362.6710	-12367.6606	-12375.9218	-12382.3776	-12386.9295	-12391.0328	-12392.8273	-12395.1470	-12399.6333	-12406.3080	-12419.8324	-12429.8225	-12439.8454	-12449.7589	-12459.3770	-12466.8286	-12474.0503	-12483.4496	-12488.3626	-12491.9516	-12498.4840	-12502.1714	-12507.5659	-12516.7353	-12525.7188	-12534.0566	-12542.7446	-12551.6734	-12559.7705	-12566.7406	-12573.3168	-12579.1927	-12586.9287	-12595.2557	-12603.3309	-12610.4651	-12615.2687	-12621.8449	-12628.2679	-12635.1723	-12640.5230	-12637.0215	-12617.3368	-12539.0791	-12237.1873	-11951.7415	-11936.4226	-12058.2954	-12205.4772	-12351.0395	-12496.6348	-12639.5492
-11489.2529	-11463.4843	-11591.5066	-11735.0994	-11823.5332	-11850.3303	-11863.4499	-11872.9914	-11882.5766	-11889.8093	-11895.4117	-11905.0407	-11910.3038	-11917.1864	-11923.0623	-11932.3740	-11938.8079	-11946.1610	-11951.0849	-11954.5864	-11960.0027	-11964.3467	-11964.5546	-11968.5813	-11978.7027	-11987.5767	-11997.4684	-12009.0560	-12015.7963	-12027.3840	-12037.4616	-12044.3661	-12051.4566	-12058.5908	-12063.3725	-12068.1870	-12070.7803	-12081.5254	-12086.9745	-12090.9793	-12101.8448	-12111.7802	-12119.1442	-12127.6462	-12135.2181	-12142.5274	-12151.2264	-12158.2184	-12166.5234	-12173.6795	-12181.9845	-12188.4841	-12195.5965	-12200.8706	-12208.5191	-12211.4187	-12214.5700	-12213.2132	-12152.9333	-11984.9725	-11686.6807	-11542.6283	-11669.2281	-11815.4798	-11961.1079	-12107.0204	-12244.2559	-12301.5486	-12312.0748	-12318.4212	-12323.9798	-12329.5821	-12337.6793	-12344.5837	-12349.5077	-12356.6200	-12364.1153	-12372.2453	-12378.5698	-12382.5308	-12389.4572	-12393.8778	-12396.9197	-12402.5767	-12410.4441	-12416.8342	-12424.0451	-12434.1993	-12441.9900	-12450.2951	-12461.7843	-12466.8833	-12473.7987	-12480.7797	-12483.9310	-12486.1851	-12491.1965	-12493.3084	-12498.3855	-12507.6425	-12512.6977	-12527.6555	-12538.2256	-12546.2352	-12557.7572	-12564.5303	-12572.5946	-12579.0286	-12583.6789	-12590.6819	-12601.0331	-12608.1454	-12610.8700	-12618.4528	-12624.8321	-12630.0514	-12633.6076	-12633.1699	-12621.0023	-12483.1213	-12258.6228	-12074.7632	-11966.8853	-12082.1162	-12228.4665	-12373.7006	-12519.0769	-12658.1944
-11227.3216	-11235.6157	-11360.3225	-11505.7535	-11651.5457	-11794.7993	-11878.7141	-11895.1819	-11907.5355	-11914.7244	-11921.3334	-11926.2793	-11931.8050	-11938.5672	-11944.2133	-11953.5141	-11961.2282	-11967.1917	-11973.8773	-11979.1513	-11983.4297	-11986.5482	-11989.8199	-11993.3323	-12002.2282	-12009.9205	-12020.5014	-12030.0648	-12036.7504	-12048.8195	-12056.8072	-12061.7093	-12068.8763	-12074.5115	-12077.1485	-12078.9102	-12081.2956	-12085.9460	-12094.3057	-12104.5366	-12113.6622	-12124.1995	-12133.4236	-12141.7287	-12150.8325	-12160.1879	-12167.0814	-12176.8855	-12182.6739	-12187.8385	-12194.9837	-12203.4091	-12212.8959	-12215.8940	-12220.0192	-12225.0744	-12224.2647	-12215.2156	-12185.5626	-12032.8222	-11818.9922	-11649.0509	-11630.2196	-11775.1364	-11920.3924	-12065.9986	-12208.9349	-12309.0876	-12325.0740	-12330.8514	-12338.8173	-12344.0913	-12350.7222	-12356.2699	-12359.8807	-12369.3566	-12378.3400	-12383.2202	-12389.0085	-12393.7027	-12401.0558	-12407.8617	-12410.8161	-12417.8300	-12424.1654	-12430.2711	-12438.8606	-12444.7037	-12455.5035	-12462.9222	-12468.9513	-12477.4642	-12483.7341	-12487.2902	-12489.1285	-12487.9796	-12485.6927	-12486.3602	-12487.9030	-12498.4511	-12516.5384	-12532.7655	-12543.5325	-12554.2119	-12564.9789	-12573.3059	-12582.1580	-12587.5305	-12592.6405	-12600.9018	-12606.1868	-12613.8681	-12619.9191	-12625.4558	-12632.8088	-12637.4702	-12638.2799	-12635.4897	-12626.6485	-12605.0926	-12561.7401	-12406.2314	-12315.3575	-12352.5714	-12472.1136	-12614.5684	-12700.9670	-12722.1727
-11336.6219	-11167.0198	-11249.2167	-11395.2386	-11540.7791	-11686.3634	-11825.3277	-11889.7437	-11900.7623	-11906.8024	-11914.7354	-11918.9481	-11923.9267	-11930.9078	-11937.3307	-11943.8960	-11951.5773	-11960.4404	-11965.3534	-11969.0190	-11976.5581	-11981.2632	-11987.2922	-11997.9827	-12004.7777	-12012.1308	-12018.5866	-12027.5700	-12035.4592	-12043.3375	-12051.2705	-12057.9780	-12058.2735	-12061.6217	-12065.2655	-12067.8478	-12062.3549	-12060.3087	-12072.6404	-12087.8389	-12099.7658	-12115.7522	-12126.7271	-12138.6320	-12144.9566	-12154.8591	-12165.2103	-12170.8893	-12177.3123	-12185.5626	-12192.3357	-12195.7059	-12201.8882	-12205.4772	-12212.1409	-12217.3055	-12218.2466	-12215.8174	-12207.5233	-12174.1391	-12111.6489	-12014.0456	-12001.7358	-11979.1732	-12108.3663	-12243.5118	-12295.4648	-12307.3479	-12315.4122	-12323.9579	-12327.2624	-12333.4119	-12340.1303	-12347.1113	-12352.2541	-12360.2090	-12369.1815	-12374.1054	-12378.2197	-12384.9271	-12393.4838	-12399.4473	-12406.1219	-12411.6258	-12420.7515	-12426.0912	-12433.1051	-12440.8630	-12445.5572	-12455.4707	-12461.7514	-12467.2662	-12473.6673	-12478.0442	-12481.6222	-12475.8120	-12462.9879	-12434.0680	-12407.1067	-12432.5908	-12474.3676	-12517.0089	-12538.4006	-12548.7300	-12558.7529	-12566.1716	-12571.4019	-12579.5210	-12586.2941	-12591.4588	-12598.2538	-12604.9175	-12611.6469	-12618.0261	-12624.2084	-12629.7779	-12632.5572	-12631.7584	-12632.2508	-12630.6861	-12624.3616	-12609.4038	-12605.8913	-12640.0087	-12670.2417	-12684.7071	-12702.8709	-12714.8087
-11649.4230	-11495.2710	-11475.1705	-11603.5538	-11747.1904	-11835.9415	-11854.4008	-11861.0317	-11870.2996	-11877.3463	-11882.6313	-11889.5030	-11897.2609	-11904.6358	-11912.3062	-11918.8824	-11925.4695	-11933.0196	-11940.0006	-11945.6905	-11953.0545	-11962.4209	-11968.8330	-11974.5885	-11982.0948	-11988.5396	-11996.6258	-12004.0664	-12011.9666	-12019.4510	-12027.0667	-12032.6690	-12037.0130	-12039.2452	-12039.9564	-12032.2751	-12011.8572	-11969.1503	-11982.8607	-12041.2257	-12064.7293	-12089.9617	-12107.1626	-12117.6780	-12128.5435	-12136.4874	-12142.1445	-12150.8106	-12157.2007	-12165.2213	-12172.8588	-12177.0715	-12183.5711	-12189.7862	-12195.9685	-12202.7854	-12205.5756	-12206.7902	-12206.3197	-12204.1532	-12198.9995	-12186.2629	-12192.8938	-12229.5278	-12252.3530	-12268.3503	-12278.7125	-12289.1293	-12297.0404	-12302.7741	-12308.7922	-12314.5587	-12322.4589	-12331.0265	-12334.2435	-12340.6993	-12353.1733	-12358.9835	-12363.9621	-12370.7134	-12377.9899	-12388.3411	-12394.7531	-12400.3117	-12407.3912	-12414.1534	-12422.4913	-12427.0213	-12435.4905	-12443.2922	-12448.7632	-12455.8755	-12460.2961	-12465.0231	-12465.5921	-12445.6666	-12376.5565	-12218.5967	-12117.2075	-12157.9339	-12282.4656	-12425.4785	-12515.5864	-12540.5672	-12550.9403	-12558.8295	-12567.4409	-12573.7217	-12576.0304	-12582.9239	-12592.5858	-12597.2799	-12602.7072	-12610.7387	-12617.8291	-12623.0047	-12627.4144	-12629.6794	-12631.4083	-12632.8636	-12635.5881	-12641.7266	-12646.1472	-12657.2097	-12675.9425	-12685.1338	-12695.0145	-12703.1445
-11740.1874	-11731.9262	-11751.0639	-11786.7678	-11804.7894	-11817.9856	-11824.3648	-11801.0363	-11831.8273	-11854.1163	-11862.1040	-11869.8510	-11874.6655	-11881.9857	-11888.9558	-11895.1600	-11904.0887	-11911.2886	-11921.5195	-11927.5595	-11935.4268	-11944.2790	-11952.2010	-11958.4818	-11965.3096	-11971.0433	-11980.3987	-11986.4935	-11994.2952	-12002.0640	-12008.9685	-12015.5666	-12017.6456	-12020.5233	-12019.2869	-11995.1268	-11893.1357	-11725.3938	-11639.5641	-11758.1762	-11903.7386	-12037.3632	-12087.4779	-12105.4885	-12114.9206	-12120.6870	-12129.7252	-12139.2448	-12146.2806	-12153.1850	-12159.1594	-12165.0681	-12172.0820	-12177.9469	-12185.9784	-12191.2087	-12195.8810	-12198.8791	-12200.6517	-12203.0590	-12208.6285	-12213.5196	-12220.5225	-12235.8524	-12248.9281	-12256.9706	-12265.4069	-12275.9660	-12283.4723	-12291.0332	-12296.2198	-12302.7084	-12308.8141	-12312.7423	-12321.1458	-12325.4023	-12333.7511	-12343.6208	-12352.0462	-12359.7823	-12369.3785	-12377.0160	-12384.8943	-12391.5362	-12399.5239	-12401.1871	-12401.3621	-12406.1657	-12414.2191	-12421.9661	-12428.3562	-12434.4291	-12440.1190	-12444.2769	-12445.4806	-12433.4005	-12333.5432	-11975.3326	-11681.8334	-11711.5192	-11860.8128	-12007.8743	-12153.9181	-12299.9401	-12443.1937	-12533.6190	-12549.1020	-12556.2253	-12561.2039	-12567.1783	-12574.0061	-12581.0966	-12586.9069	-12593.7347	-12601.7881	-12607.7187	-12611.9861	-12615.5860	-12618.8139	-12623.5847	-12627.3597	-12633.6076	-12641.6172	-12649.3861	-12657.9209	-12668.9614	-12676.4021	-12686.5672
-11762.7390	-11772.0070	-11780.2792	-11795.3245	-11805.0192	-11817.6026	-11828.8292	-11836.8059	-11838.3378	-11852.4750	-11860.3314	-11868.4285	-11873.6151	-11878.8454	-11885.1589	-11892.3479	-11901.6268	-11911.1245	-11918.1821	-11925.9291	-11933.9825	-11943.3161	-11954.0502	-11957.0265	-11966.9619	-11973.3083	-11978.2869	-11987.7080	-11992.4460	-12000.8714	-12008.6293	-12013.9034	-12018.6632	-12020.0309	-12017.9629	-11975.0481	-11717.6687	-11359.5893	-11262.5988	-11394.3085	-11542.2344	-11688.3330	-11834.5519	-11979.5015	-12097.7634	-12125.7970	-12131.0273	-12137.6254	-12146.0398	-12152.6051	-12159.8597	-12164.4991	-12172.1804	-12177.5530	-12183.1772	-12189.8847	-12194.4257	-12199.0651	-12201.9319	-12207.0638	-12212.8740	-12219.8113	-12224.1662	-12236.2791	-12245.3391	-12253.9177	-12262.0477	-12270.9764	-12278.9094	-12284.7634	-12291.9414	-12295.8915	-12300.7170	-12304.9844	-12308.6609	-12315.4012	-12322.2291	-12332.0879	-12340.1412	-12349.7046	-12360.0996	-12369.4332	-12375.6920	-12382.9576	-12391.5580	-12397.7622	-12407.6976	-12410.8599	-12417.2500	-12425.6973	-12431.4528	-12438.1932	-12441.2788	-12444.9554	-12444.4192	-12430.5446	-12293.2107	-12001.9327	-11818.5655	-11751.4797	-11884.6775	-12031.3997	-12177.4107	-12323.2795	-12464.0602	-12537.9192	-12550.0758	-12553.6977	-12563.2610	-12566.6531	-12572.8025	-12578.8754	-12586.9397	-12589.6643	-12597.5316	-12603.7467	-12610.4980	-12615.3672	-12620.0942	-12624.8758	-12630.4016	-12635.1614	-12644.3199	-12652.1654	-12658.1616	-12668.5238	-12675.4501	-12685.3855
-11770.3438	-11781.8658	-11786.9757	-11799.3403	-11809.4726	-11818.0293	-11826.0718	-11833.4686	-11843.4259	-11848.5140	-11854.0616	-11858.6135	-11866.0650	-11872.5099	-11874.2935	-11883.1456	-11888.6057	-11904.7671	-11911.1792	-11922.6684	-11930.9625	-11937.9107	-11950.7348	-11954.1597	-11963.1540	-11970.2554	-11978.7027	-11984.1190	-11992.6648	-11998.5516	-12005.7078	-12010.1174	-12012.1417	-12015.3368	-12011.9119	-11966.8196	-11750.1447	-11502.3943	-11331.2275	-11310.8315	-11456.2407	-11602.8973	-11748.9083	-11895.1928	-12037.0349	-12116.3102	-12126.0049	-12132.8109	-12140.0436	-12144.1469	-12151.9923	-12159.0171	-12165.6808	-12171.0643	-12176.9512	-12183.1882	-12190.2677	-12196.0342	-12199.8420	-12208.4643	-12213.5415	-12221.0915	-12230.2172	-12236.3010	-12243.7197	-12250.4710	-12258.9073	-12266.9497	-12273.8979	-12280.2334	-12282.6188	-12287.1269	-12289.6764	-12288.3634	-12294.0751	-12293.4733	-12304.0105	-12322.4807	-12330.7311	-12339.8020	-12356.2151	-12364.7609	-12371.1839	-12378.5151	-12385.7040	-12394.8516	-12401.1980	-12406.1876	-12414.3613	-12419.0445	-12428.0717	-12432.6018	-12435.7968	-12440.9396	-12439.1342	-12431.6936	-12398.1889	-12343.8178	-12150.0556	-12054.2030	-12120.3150	-12249.5299	-12393.6151	-12499.8408	-12521.2982	-12529.8111	-12536.5186	-12544.8127	-12551.5421	-12560.2520	-12566.5984	-12570.5813	-12577.4310	-12582.7160	-12590.7256	-12598.0459	-12605.5959	-12610.7825	-12614.6450	-12622.3592	-12630.0733	-12635.2708	-12642.1096	-12648.9922	-12656.2905	-12664.1798	-12671.2265	-12677.9996
-11758.9421	-11771.0003	-11776.9419	-11784.2293	-11795.4449	-11801.8788	-11812.3832	-11816.8914	-11824.9447	-11830.7769	-11835.8868	-11838.0862	-11842.3973	-11841.3907	-11844.3669	-11852.2671	-11864.4456	-11880.2897	-11886.3079	-11902.5240	-11913.8709	-11922.8763	-11931.3236	-11939.3441	-11948.1415	-11953.3499	-11961.8191	-11968.7345	-11973.8444	-11980.3221	-11988.3427	-11993.2010	-11997.6434	-12000.9698	-11999.4161	-11990.4654	-11967.3996	-11864.8723	-11680.7720	-11667.6306	-11686.6807	-11826.6189	-11970.7150	-12068.3949	-12092.0845	-12098.9780	-12104.8867	-12115.1175	-12120.6214	-12126.4535	-12133.9926	-12140.4703	-12148.7535	-12153.9072	-12162.7812	-12168.6571	-12175.6710	-12183.5711	-12189.6768	-12196.9205	-12201.7897	-12209.2850	-12216.1566	-12223.6629	-12229.9765	-12238.8067	-12244.7592	-12251.0400	-12259.6951	-12267.8032	-12271.1405	-12271.0749	-12270.0573	-12260.7565	-12237.6359	-12234.6816	-12258.8307	-12293.7578	-12313.8803	-12327.4266	-12339.1565	-12350.3064	-12359.0929	-12368.6453	-12372.9893	-12380.4409	-12389.3696	-12395.1361	-12400.3883	-12408.8575	-12415.6197	-12420.5217	-12427.2948	-12431.0261	-12431.5513	-12429.3738	-12425.5441	-12418.9570	-12404.9183	-12414.9084	-12402.6752	-12421.9223	-12482.1803	-12500.2894	-12508.1130	-12518.7596	-12525.6531	-12533.6080	-12541.2018	-12545.4583	-12553.1396	-12559.9237	-12566.3139	-12572.6603	-12582.6066	-12589.1281	-12595.7152	-12601.4379	-12608.7363	-12617.0413	-12624.4163	-12630.2703	-12637.2842	-12645.0311	-12652.8328	-12660.8205	-12664.1469	-12672.9881



