HS100upperRight125_0.25rate_2019-04-01_13.51.59, 10um, 128 pixels, Left.wsf

Pixels in X: 	128
Lines in Y: 	128
X Range: 	10.000
Y Range: 	10.000
Z-Drive Calibration: 	1.0000
Z-Sense Calibration: 	1.9316
X Calibration: 	0.5952
Y Calibration: 	0.5940
X Offset: 	22.000
Y Offset: 	24.000
Rotation(°): 	0
Scan Rate(Hz): 	0.25
Scan Type: 	Vibrating
Vpp: 	0.200
Phase: 	86.51
Demod Gain : 	4dB
Selected (kHz) : 	149.69
Display Type: 	Z_DRIVE
Samples/Pixel: 	25
XY HV Gain: 	15
Z HV Gain: 	15
Z Sensor Gain: 	640
X GPID: 	100.000000000 %, 256, 4096, 0
Y GPID: 	100.000000000 %, 256, 4096, 0
Z GPID: 	1.0000, 100, 1000, 0
Setpoint: 	625





-6949.5404	-6947.5380	-6948.3696	-6947.8444	-6947.9319	-6948.5228	-6946.7393	-6945.9405	-6946.1265	-6946.6736	-6945.5794	-6944.2116	-6944.2226	-6944.1350	-6942.8658	-6943.3691	-6942.3843	-6942.4500	-6940.7868	-6941.4871	-6941.0713	-6941.5746	-6938.8610	-6941.1697	-6938.2044	-6937.6573	-6937.0993	-6937.1868	-6937.2744	-6937.1212	-6936.2130	-6935.4580	-6935.8300	-6934.6373	-6933.4884	-6931.8690	-6932.7334	-6930.2386	-6930.7420	-6931.4094	-6931.4751	-6930.0307	-6929.9869	-6928.3019	-6928.3128	-6928.8490	-6928.2909	-6927.7329	-6927.0326	-6926.8247	-6926.1244	-6926.7372	-6924.8442	-6925.3585	-6924.3080	-6924.8770	-6923.7281	-6924.3408	-6922.4150	-6922.3166	-6921.0910	-6921.0801	-6920.9926	-6920.8394	-6920.7300	-6919.9859	-6919.4278	-6918.7713	-6919.2637	-6918.9026	-6919.1215	-6917.2285	-6918.4649	-6916.1124	-6915.5872	-6913.7161	-6914.4601	-6914.2413	-6914.0334	-6913.7817	-6913.4535	-6913.3769	-6912.0201	-6910.6851	-6909.6456	-6910.3022	-6908.6390	-6909.0876	-6907.4682	-6907.2821	-6906.6475	-6906.5162	-6906.5162	-6906.3521	-6904.9843	-6905.6737	-6905.9691	-6905.2579	-6905.8706	-6905.1922	-6904.7655	-6903.3430	-6904.4810	-6903.3649	-6901.3078	-6898.5723	-6900.5418	-6900.4105	-6900.7060	-6899.8197	-6899.2069	-6899.3820	-6897.7735	-6896.3401	-6895.5413	-6894.6769	-6894.4580	-6895.8696	-6894.5784	-6893.8453	-6892.8167	-6893.3201	-6891.4709	-6892.4447	-6891.5693	-6890.5955	-6891.0660	-6890.4751
-6945.5356	-6945.3824	-6941.0166	-6943.0737	-6944.1569	-6942.8111	-6941.3339	-6941.6731	-6940.4476	-6940.5898	-6942.1217	-6941.6731	-6942.0779	-6940.0537	-6939.1236	-6938.8610	-6939.0470	-6938.4780	-6937.9637	-6937.5260	-6937.5807	-6937.0555	-6936.7273	-6935.2063	-6934.0683	-6935.2391	-6933.0507	-6932.4161	-6932.1754	-6932.3833	-6932.1535	-6932.5802	-6930.3480	-6930.1948	-6929.5711	-6930.6435	-6928.7505	-6928.4988	-6928.7396	-6927.8095	-6928.0502	-6926.5074	-6926.4636	-6925.7633	-6926.1025	-6923.6187	-6922.6886	-6923.7171	-6924.5487	-6923.4983	-6923.0387	-6920.9597	-6920.8722	-6920.4345	-6919.6357	-6920.0734	-6919.9968	-6920.1610	-6918.5415	-6918.5525	-6918.6291	-6918.3008	-6917.3270	-6918.4649	-6916.7908	-6916.3312	-6915.3027	-6915.2589	-6915.0510	-6914.4273	-6913.9787	-6914.0006	-6914.0334	-6913.0158	-6911.6480	-6911.1885	-6912.7422	-6910.1490	-6909.7441	-6908.9563	-6909.3611	-6908.6061	-6908.0590	-6906.7569	-6904.8092	-6905.1047	-6905.5533	-6905.7393	-6904.9953	-6904.9077	-6904.3497	-6904.1746	-6901.7783	-6900.5418	-6900.1479	-6902.5661	-6901.0780	-6902.0300	-6901.5266	-6900.8810	-6899.8744	-6898.8458	-6898.1346	-6898.0908	-6898.0689	-6897.0841	-6896.1212	-6896.4057	-6897.3577	-6895.8696	-6895.9243	-6893.1669	-6894.5018	-6892.5541	-6893.0465	-6892.8058	-6892.3790	-6891.4927	-6890.5845	-6888.2648	-6890.0703	-6891.1426	-6889.7201	-6890.1140	-6888.5712	-6888.8119	-6886.9955	-6887.5645
-6943.7192	-6943.1503	-6942.0451	-6942.8001	-6940.4366	-6940.2616	-6938.7078	-6939.7582	-6938.1607	-6938.1497	-6937.7668	-6938.9594	-6937.7230	-6937.0227	-6937.0118	-6936.2786	-6936.3224	-6935.0531	-6935.1078	-6934.6154	-6934.9765	-6933.6307	-6933.4446	-6932.1097	-6931.6064	-6930.9061	-6931.1249	-6930.7420	-6930.3918	-6929.6149	-6929.8994	-6928.8052	-6928.9475	-6928.2143	-6926.2557	-6926.6934	-6927.4046	-6925.5007	-6925.2053	-6924.4721	-6923.7937	-6923.8266	-6924.2861	-6923.6734	-6923.3342	-6922.6886	-6922.0758	-6922.3166	-6922.7542	-6921.5178	-6921.9883	-6920.3142	-6919.5482	-6919.8108	-6920.0734	-6918.3774	-6918.2023	-6915.6857	-6915.4121	-6916.3312	-6915.5872	-6915.8060	-6914.7994	-6915.2042	-6913.2456	-6913.0049	-6912.3593	-6912.9611	-6911.8559	-6911.6480	-6911.1885	-6911.8122	-6910.8711	-6910.3240	-6908.2451	-6908.1247	-6907.8730	-6907.9277	-6907.6870	-6907.5229	-6907.5885	-6906.2974	-6905.2032	-6904.9296	-6905.5205	-6902.9381	-6901.8221	-6903.5181	-6903.5290	-6901.9971	-6900.7716	-6901.0233	-6900.3120	-6899.8087	-6897.5218	-6897.5437	-6898.3097	-6898.7692	-6897.9704	-6899.0975	-6896.3729	-6896.9528	-6896.1212	-6895.8696	-6894.3596	-6894.1188	-6893.3201	-6893.1231	-6893.6483	-6892.6088	-6891.9195	-6892.5760	-6891.3286	-6890.3766	-6890.7706	-6889.2058	-6890.3329	-6888.9214	-6889.3043	-6886.9190	-6886.2734	-6886.7111	-6888.0460	-6886.0545	-6886.2734	-6885.5621	-6886.0983	-6884.9713
-6941.7825	-6940.1193	-6939.5503	-6938.1716	-6938.0841	-6938.7734	-6936.8367	-6937.6464	-6936.3443	-6936.2239	-6936.6069	-6935.3376	-6933.7182	-6934.2215	-6932.8757	-6932.7115	-6931.0046	-6932.3833	-6931.4204	-6930.7420	-6930.3809	-6931.0812	-6930.2167	-6928.9912	-6929.3742	-6928.0721	-6928.5864	-6927.1748	-6927.4703	-6926.5293	-6925.9493	-6925.5116	-6926.5840	-6924.5816	-6924.2095	-6924.1877	-6922.7542	-6923.6843	-6923.2029	-6923.7609	-6921.4412	-6921.2333	-6920.3251	-6920.2157	-6918.7823	-6919.6248	-6917.9288	-6919.3841	-6917.6881	-6918.0929	-6918.3446	-6916.8455	-6917.0206	-6917.3270	-6917.2176	-6915.7841	-6914.9963	-6913.4972	-6915.0510	-6914.1100	-6915.1714	-6912.7094	-6913.0705	-6912.1514	-6912.6985	-6911.2104	-6910.8711	-6910.8711	-6909.6675	-6909.8098	-6907.7089	-6907.7745	-6908.5514	-6908.1028	-6906.4834	-6906.9320	-6906.4615	-6906.4396	-6905.7940	-6906.1661	-6905.7503	-6904.3387	-6903.3539	-6904.1746	-6903.0695	-6900.2464	-6901.5047	-6901.0999	-6901.2531	-6899.8634	-6899.8963	-6898.6817	-6897.7516	-6895.7383	-6897.1826	-6897.0732	-6896.7887	-6895.7273	-6895.8039	-6894.6112	-6894.3814	-6893.4514	-6893.2216	-6892.7183	-6892.4119	-6892.9371	-6890.0703	-6890.6174	-6891.2082	-6890.2672	-6889.6764	-6890.0703	-6888.2977	-6887.9803	-6887.4004	-6887.3019	-6887.6740	-6886.8095	-6885.8138	-6885.1245	-6885.9889	-6885.6825	-6885.9889	-6882.0060	-6884.0412	-6882.8923	-6883.0892	-6882.1154
-6939.5613	-6938.7844	-6939.0579	-6937.1868	-6936.9899	-6935.8300	-6936.2568	-6935.0203	-6934.8343	-6934.8233	-6935.1407	-6932.6349	-6932.6568	-6933.2149	-6931.3656	-6931.8799	-6931.5079	-6931.3547	-6929.0240	-6929.3851	-6929.1882	-6927.6891	-6928.3019	-6928.2472	-6927.4265	-6927.5797	-6927.4922	-6925.0630	-6923.8375	-6924.9864	-6925.6648	-6924.5378	-6923.5311	-6922.1196	-6923.2685	-6921.4084	-6921.7366	-6920.1172	-6921.0144	-6920.1500	-6920.3470	-6919.7233	-6919.0230	-6918.2461	-6917.8084	-6917.6662	-6917.4473	-6916.8893	-6916.0905	-6914.9963	-6913.9130	-6916.1452	-6915.0073	-6914.4164	-6914.5258	-6912.8735	-6913.2237	-6913.3769	-6912.6000	-6911.1228	-6910.0614	-6910.2475	-6910.6414	-6910.7617	-6910.7617	-6909.4596	-6909.1095	-6907.5338	-6907.2165	-6907.1727	-6907.7855	-6907.5995	-6907.5885	-6905.9800	-6905.2032	-6904.3059	-6904.3716	-6904.5466	-6904.2840	-6904.3716	-6901.4610	-6901.5157	-6901.9424	-6901.6251	-6900.4543	-6900.8810	-6900.1917	-6900.2902	-6898.5394	-6898.7911	-6898.5613	-6898.1127	-6896.9091	-6896.5699	-6895.8805	-6895.8367	-6895.7711	-6893.9656	-6894.3158	-6893.4514	-6893.5717	-6892.6198	-6892.8714	-6891.9085	-6891.8976	-6890.8253	-6890.5955	-6889.9937	-6889.8843	-6888.9651	-6888.3195	-6888.6259	-6887.4442	-6887.7506	-6886.1202	-6886.1530	-6885.9561	-6885.2667	-6883.8223	-6885.0479	-6882.6297	-6882.3452	-6882.1263	-6882.5202	-6881.4917	-6881.3713	-6881.8528	-6880.9993
-6937.1649	-6937.1759	-6936.8257	-6935.8738	-6935.4908	-6934.9875	-6935.4580	-6934.5826	-6933.5431	-6932.2738	-6933.6088	-6931.6830	-6930.8514	-6928.5973	-6930.4465	-6928.9037	-6930.2058	-6930.3152	-6929.1006	-6928.2581	-6927.2733	-6927.5469	-6927.2295	-6927.5031	-6926.7590	-6926.8466	-6924.8551	-6924.7895	-6922.5354	-6922.1196	-6921.2442	-6922.3494	-6921.6381	-6921.4740	-6920.9160	-6920.2376	-6919.9859	-6918.5634	-6918.5525	-6918.0601	-6918.8807	-6916.9659	-6916.5610	-6917.0534	-6917.1519	-6915.5106	-6915.3793	-6915.1714	-6914.6571	-6914.6462	-6913.4972	-6914.4492	-6913.6395	-6911.2651	-6911.6152	-6912.7094	-6911.1009	-6912.4796	-6910.3569	-6909.5800	-6910.8930	-6911.1338	-6910.0286	-6908.0590	-6906.7241	-6907.1837	-6907.6432	-6907.0742	-6906.8007	-6905.7831	-6905.6190	-6904.0652	-6902.8287	-6902.1613	-6903.2992	-6902.5552	-6903.1679	-6901.4172	-6901.4172	-6899.6555	-6901.2312	-6899.5570	-6898.3425	-6898.8896	-6897.8063	-6897.2154	-6896.6465	-6897.9595	-6897.5546	-6897.1388	-6895.7820	-6896.6136	-6895.6945	-6895.4428	-6893.1012	-6892.1821	-6892.1383	-6891.7116	-6892.0946	-6891.3177	-6890.9894	-6891.4599	-6891.0660	-6889.2387	-6889.2606	-6888.3852	-6888.0022	-6887.7943	-6887.9694	-6887.2691	-6887.2910	-6886.5579	-6885.0807	-6884.1834	-6884.5883	-6885.0260	-6884.5445	-6882.7829	-6882.0388	-6883.9865	-6880.7476	-6881.0102	-6880.0692	-6880.9555	-6880.7257	-6880.1786	-6879.8504	-6879.6096
-6935.0312	-6934.5498	-6934.3310	-6934.6920	-6934.0683	-6933.1711	-6932.5912	-6933.2696	-6931.2234	-6931.1359	-6931.3875	-6929.8885	-6929.2757	-6928.6630	-6929.0459	-6927.7329	-6928.0064	-6927.2952	-6926.5730	-6926.3432	-6926.6606	-6925.9056	-6925.8837	-6924.6582	-6924.0782	-6924.3190	-6923.0059	-6921.4959	-6921.6929	-6922.3713	-6922.0977	-6922.2181	-6920.9488	-6919.6795	-6918.1914	-6918.7713	-6918.4868	-6917.5896	-6916.7361	-6916.6704	-6916.4954	-6916.9987	-6915.7075	-6914.1100	-6915.9264	-6913.6723	-6914.6680	-6913.1362	-6912.1076	-6910.5429	-6912.3702	-6912.0201	-6912.4796	-6909.2517	-6909.6675	-6909.3502	-6909.4815	-6909.0766	-6907.7417	-6906.8992	-6905.8597	-6908.2888	-6907.3150	-6907.3369	-6905.3126	-6906.7679	-6904.4263	-6904.9843	-6902.9710	-6902.7302	-6903.2555	-6903.0366	-6903.0804	-6902.8616	-6901.1655	-6901.0342	-6900.9139	-6900.2464	-6901.4281	-6899.6446	-6899.5570	-6898.1893	-6898.1346	-6897.3030	-6896.9747	-6896.1650	-6896.6246	-6894.7535	-6894.9067	-6894.1735	-6894.2283	-6894.7644	-6893.7906	-6893.0246	-6891.4052	-6892.2149	-6891.1535	-6891.1426	-6890.3110	-6890.9675	-6889.6873	-6889.9171	-6888.6587	-6888.2429	-6887.5864	-6888.1663	-6886.7220	-6886.1202	-6886.6673	-6885.2558	-6884.1506	-6884.9275	-6884.8181	-6882.7172	-6884.1506	-6882.7391	-6882.8376	-6882.8376	-6882.7172	-6881.1853	-6879.1282	-6880.0145	-6880.1130	-6880.1677	-6878.5920	-6877.9793	-6877.9355	-6877.7495
-6934.1559	-6933.4665	-6931.8252	-6930.5012	-6929.9541	-6930.0745	-6931.0593	-6930.0198	-6928.2690	-6928.0721	-6927.7766	-6928.3785	-6926.4745	-6928.6958	-6927.7657	-6927.0216	-6927.3280	-6927.2952	-6926.1791	-6924.7566	-6923.8266	-6923.8266	-6925.1834	-6923.2795	-6922.9512	-6923.3232	-6923.9579	-6922.7871	-6922.3713	-6920.8394	-6920.7737	-6919.8436	-6918.3336	-6918.4212	-6918.4759	-6916.2765	-6916.1671	-6917.5239	-6915.6638	-6915.9483	-6915.0401	-6914.8212	-6912.3483	-6912.4687	-6913.0924	-6913.3331	-6911.4511	-6911.6262	-6911.1556	-6909.9739	-6909.6019	-6909.2845	-6908.9235	-6909.2627	-6909.2955	-6908.4967	-6908.8031	-6907.0305	-6906.5490	-6906.2317	-6907.7308	-6906.8554	-6906.7132	-6904.5138	-6904.1746	-6904.3497	-6903.3977	-6904.2293	-6902.9819	-6902.9819	-6900.7169	-6901.8549	-6900.9139	-6900.4762	-6899.1303	-6898.1565	-6897.5437	-6898.1236	-6896.6793	-6896.0009	-6896.7887	-6896.6355	-6895.3772	-6894.6222	-6894.9176	-6893.9438	-6894.6878	-6893.4733	-6893.7796	-6892.5104	-6891.9851	-6889.3809	-6891.3505	-6891.6459	-6891.3943	-6889.9827	-6889.7311	-6890.6502	-6889.1074	-6889.2496	-6888.0460	-6888.4290	-6887.2363	-6886.4703	-6885.7700	-6885.3324	-6884.2163	-6885.4199	-6884.3476	-6884.4132	-6882.6734	-6882.2686	-6882.2576	-6882.4655	-6882.1154	-6881.8965	-6881.0321	-6880.4084	-6880.8789	-6879.3142	-6878.6467	-6877.5088	-6878.2966	-6877.5635	-6878.5045	-6877.2899	-6876.8632	-6875.5283
-6931.2562	-6930.8295	-6931.8143	-6930.7091	-6929.6915	-6930.0964	-6929.5055	-6930.1839	-6928.4441	-6927.0873	-6928.4988	-6926.7481	-6926.3870	-6926.4964	-6926.1135	-6926.8466	-6925.6867	-6925.6867	-6923.8594	-6924.0782	-6922.6886	-6923.7500	-6921.2880	-6921.7585	-6920.6643	-6920.3032	-6920.1063	-6918.6838	-6918.8151	-6917.5239	-6917.0862	-6915.9373	-6917.6333	-6915.5215	-6915.7185	-6914.9635	-6916.0467	-6914.8650	-6916.1015	-6914.5367	-6914.1538	-6914.1757	-6913.6504	-6911.7903	-6912.5125	-6912.9392	-6910.4225	-6909.6347	-6909.9520	-6911.2104	-6908.3545	-6909.2517	-6907.9058	-6908.7265	-6908.3435	-6908.1137	-6906.9320	-6907.0086	-6904.9843	-6904.9187	-6905.3782	-6903.4524	-6903.1351	-6902.5114	-6902.7521	-6901.5266	-6901.7345	-6902.0190	-6901.7564	-6899.5461	-6898.6598	-6900.4543	-6899.7978	-6897.9704	-6897.8829	-6897.0185	-6896.7996	-6897.7407	-6896.8872	-6895.9243	-6893.4733	-6894.3158	-6895.1583	-6894.5784	-6893.8453	-6894.1298	-6892.0289	-6891.1754	-6890.8581	-6890.8472	-6889.8843	-6890.0593	-6889.3700	-6889.2934	-6889.7092	-6888.0132	-6887.0065	-6886.7329	-6886.5469	-6885.8138	-6886.4047	-6885.1682	-6884.4898	-6885.8904	-6884.9166	-6882.8376	-6881.9294	-6882.8047	-6882.9142	-6883.5488	-6882.5531	-6882.9470	-6882.1263	-6882.3452	-6880.5835	-6879.7519	-6878.0449	-6877.9902	-6878.5264	-6877.2352	-6876.8413	-6876.3380	-6875.9659	-6876.9070	-6875.7690	-6875.4298	-6876.1738	-6873.5368
-6930.1511	-6930.6982	-6930.2386	-6930.2167	-6930.2496	-6927.2733	-6927.5578	-6927.2514	-6928.0502	-6926.1463	-6925.5773	-6924.5597	-6924.3408	-6923.9141	-6925.4350	-6924.4940	-6924.3408	-6922.0430	-6921.8789	-6921.1348	-6919.5920	-6921.1348	-6919.4935	-6918.7166	-6918.9355	-6918.8479	-6918.4540	-6918.7713	-6918.6072	-6917.8960	-6915.9264	-6916.0249	-6916.0577	-6915.4559	-6914.0553	-6914.4601	-6913.6286	-6913.7927	-6914.0553	-6911.7246	-6912.5672	-6912.8954	-6911.5386	-6909.9958	-6910.5101	-6910.9477	-6910.9696	-6908.6718	-6908.3764	-6908.4311	-6908.9125	-6908.7156	-6906.5490	-6906.0019	-6906.8992	-6906.4724	-6904.0433	-6905.6080	-6904.4044	-6903.1898	-6901.9205	-6902.3473	-6901.9862	-6900.9029	-6901.2202	-6900.2136	-6900.6294	-6900.1041	-6899.7978	-6899.4805	-6899.2944	-6897.2373	-6898.5832	-6897.8610	-6898.1674	-6897.4671	-6896.7340	-6895.4757	-6895.7601	-6895.7164	-6893.4295	-6893.4404	-6893.4076	-6892.5104	-6890.5955	-6890.8034	-6891.1098	-6890.3766	-6889.6982	-6889.5669	-6888.4508	-6888.2429	-6887.2144	-6887.3457	-6886.7001	-6886.7001	-6885.7700	-6885.0588	-6885.1245	-6883.3956	-6883.8005	-6883.2096	-6884.3366	-6883.6144	-6884.2381	-6882.8704	-6882.7172	-6879.3908	-6879.1282	-6880.5178	-6881.1744	-6880.0254	-6880.2771	-6879.9379	-6879.7081	-6878.9422	-6877.0711	-6877.2243	-6876.4364	-6877.1039	-6876.1629	-6874.7733	-6874.7295	-6874.5982	-6874.3465	-6873.9635	-6873.2085	-6873.3508
-6927.7657	-6928.2253	-6927.4265	-6928.0174	-6927.2514	-6926.6496	-6926.6715	-6925.9493	-6924.4174	-6924.8113	-6926.0587	-6923.8266	-6923.0716	-6921.9774	-6922.0977	-6923.1700	-6923.3889	-6922.5026	-6922.8308	-6920.5002	-6920.1829	-6917.6333	-6918.3884	-6918.1039	-6917.9726	-6916.3422	-6917.1628	-6917.0206	-6915.4559	-6914.2960	-6913.8146	-6914.8322	-6912.6438	-6913.8912	-6913.8036	-6912.1623	-6912.4359	-6912.4687	-6911.3635	-6910.7836	-6911.7465	-6909.5800	-6909.8207	-6909.0548	-6908.7922	-6908.0590	-6909.5909	-6907.8074	-6907.3587	-6905.9253	-6907.0852	-6906.2317	-6906.4834	-6904.4153	-6905.1594	-6905.4548	-6903.0147	-6903.1351	-6903.0585	-6903.6603	-6902.7740	-6902.7850	-6899.5242	-6899.6774	-6898.7911	-6900.4324	-6899.7868	-6899.6884	-6897.6422	-6898.1893	-6898.4300	-6898.0689	-6896.6355	-6896.0884	-6897.1498	-6895.6945	-6894.4799	-6892.8277	-6893.8891	-6894.3158	-6894.7207	-6892.3572	-6892.4885	-6890.7596	-6891.4709	-6890.8362	-6890.7924	-6889.3481	-6886.8861	-6869.4773	-6858.8088	-6834.9988	-6772.3555	-6791.3837	-6769.9920	-6805.2692	-6854.0818	-6877.9027	-6885.1682	-6885.3324	-6885.3761	-6884.3257	-6882.7829	-6883.5050	-6883.1986	-6882.5202	-6882.0497	-6880.3099	-6880.3099	-6879.2267	-6880.2005	-6879.2267	-6878.2309	-6877.0054	-6876.5021	-6876.6553	-6877.0930	-6876.3051	-6876.6006	-6874.9483	-6873.7228	-6873.9526	-6873.1429	-6874.3793	-6872.7161	-6871.6657	-6870.8998	-6871.5563
-6929.0022	-6928.9365	-6927.9517	-6927.1639	-6925.3585	-6925.8508	-6926.4198	-6924.9974	-6923.3998	-6923.6843	-6924.5597	-6923.8813	-6923.3889	-6922.1853	-6920.9379	-6920.8394	-6920.5111	-6920.6862	-6920.7081	-6919.2090	-6919.8765	-6917.3598	-6916.9549	-6917.0644	-6916.5610	-6915.7404	-6915.4121	-6914.1975	-6913.7927	-6913.9459	-6914.6571	-6914.1975	-6912.9064	-6911.4620	-6910.4444	-6911.1885	-6910.3240	-6910.4772	-6909.0219	-6908.8359	-6908.1028	-6909.8535	-6909.1970	-6908.1356	-6907.1727	-6906.8226	-6906.2317	-6905.5424	-6907.2603	-6905.9800	-6904.3934	-6903.2992	-6904.1965	-6903.8245	-6903.8682	-6902.1394	-6901.8439	-6901.2859	-6901.5923	-6900.9139	-6901.1436	-6900.8154	-6899.8963	-6899.1522	-6898.6051	-6898.1565	-6897.4343	-6899.2397	-6897.6203	-6897.3796	-6896.9419	-6896.8434	-6896.1431	-6896.7340	-6894.3049	-6893.9875	-6894.0751	-6892.9809	-6891.9414	-6892.0508	-6892.0836	-6890.7159	-6890.9566	-6889.8405	-6891.0551	-6890.3438	-6888.0022	-6840.8419	-6807.5452	-6736.0059	-6723.9806	-6722.1532	-6722.9082	-6723.1490	-6722.3392	-6721.1794	-6725.7641	-6728.7841	-6796.0122	-6837.4170	-6875.0687	-6885.5731	-6883.1877	-6884.4570	-6883.8005	-6883.3628	-6882.2029	-6882.5421	-6879.8723	-6880.7148	-6880.5835	-6880.7586	-6879.6534	-6878.4388	-6879.0188	-6877.5307	-6876.0425	-6874.5654	-6874.8061	-6873.4274	-6874.1933	-6873.7447	-6873.1429	-6872.3769	-6871.9174	-6871.6657	-6871.5563	-6870.9764
-6927.1639	-6926.1353	-6927.8095	-6925.7743	-6927.0216	-6924.9427	-6924.7019	-6924.0235	-6923.1263	-6922.8855	-6922.0758	-6924.0345	-6921.6272	-6921.6819	-6920.7847	-6921.2880	-6921.0692	-6920.0297	-6917.8303	-6917.5786	-6916.8236	-6918.0273	-6917.5568	-6917.4911	-6915.3902	-6914.7665	-6914.5805	-6913.5957	-6915.0401	-6914.7009	-6913.9459	-6912.6328	-6913.3441	-6911.6809	-6912.3264	-6911.6152	-6910.2256	-6909.9411	-6910.8821	-6910.9477	-6908.7374	-6908.4311	-6907.6323	-6908.6718	-6906.9648	-6906.5053	-6906.1004	-6905.3892	-6905.2141	-6903.8573	-6902.4239	-6902.6646	-6902.1613	-6903.0804	-6902.3473	-6901.4063	-6901.3515	-6900.1807	-6900.9686	-6900.4543	-6900.8373	-6899.7431	-6898.8239	-6898.4519	-6897.6860	-6897.7516	-6899.1084	-6897.6969	-6897.0732	-6895.8039	-6896.2197	-6896.1103	-6893.9438	-6893.8891	-6892.3243	-6893.4733	-6892.4119	-6892.4994	-6890.3329	-6890.3876	-6890.3219	-6891.0332	-6889.3809	-6889.7092	-6887.8053	-6879.8175	-6775.5943	-6734.3646	-6720.4463	-6720.1180	-6720.9715	-6719.7132	-6721.5186	-6720.5010	-6719.4068	-6718.6737	-6720.3150	-6719.2974	-6721.3216	-6721.2888	-6734.2442	-6801.7459	-6859.8264	-6885.4746	-6883.6144	-6881.9294	-6881.1415	-6881.9513	-6880.7039	-6879.9051	-6877.9683	-6879.4236	-6877.2462	-6878.2528	-6876.8851	-6876.7647	-6875.6049	-6875.4188	-6875.4954	-6873.6353	-6872.6177	-6873.4711	-6873.3180	-6870.8998	-6871.6110	-6871.6985	-6871.2390	-6868.7442
-6927.4374	-6926.7043	-6924.6034	-6923.4983	-6924.4065	-6924.6582	-6923.6624	-6921.4631	-6921.5506	-6922.4150	-6921.0801	-6921.2771	-6921.3318	-6920.0953	-6919.6686	-6919.1652	-6920.2594	-6919.7999	-6919.3950	-6917.2613	-6916.0358	-6915.7404	-6914.9525	-6916.9659	-6914.1647	-6914.2851	-6912.9064	-6913.0049	-6912.8954	-6913.0486	-6913.3769	-6910.1709	-6911.0134	-6910.7180	-6911.2869	-6910.1927	-6908.9453	-6908.0700	-6907.8730	-6908.5295	-6909.3502	-6907.8293	-6906.1551	-6905.3235	-6906.2536	-6905.8816	-6904.4919	-6904.9953	-6904.9843	-6903.9886	-6902.0737	-6902.3363	-6903.1132	-6901.1874	-6901.1874	-6900.9576	-6900.5199	-6901.4172	-6900.2683	-6901.3297	-6899.9728	-6898.8677	-6898.0689	-6896.4057	-6896.4495	-6898.0470	-6896.3073	-6895.3772	-6896.0118	-6894.6550	-6895.4428	-6894.2283	-6892.5104	-6893.2544	-6892.8167	-6891.1317	-6892.3243	-6892.3353	-6890.3657	-6889.7639	-6890.0265	-6890.8690	-6889.5779	-6889.5779	-6819.5705	-6761.7964	-6720.4025	-6721.4201	-6720.5010	-6720.2274	-6717.8749	-6718.5314	-6719.3302	-6719.9648	-6719.3302	-6718.3563	-6718.0937	-6717.9843	-6718.4439	-6717.1418	-6717.0105	-6718.5314	-6738.1724	-6810.9153	-6873.6572	-6881.1962	-6881.0649	-6881.5245	-6879.8394	-6878.9203	-6878.8765	-6878.0668	-6877.2899	-6876.2942	-6875.7799	-6876.9179	-6875.8893	-6875.7690	-6873.0663	-6873.7556	-6872.9788	-6873.0006	-6872.4098	-6870.1119	-6870.7794	-6869.8274	-6869.4335	-6868.9411
-6925.7961	-6926.0697	-6924.7785	-6925.4679	-6924.5816	-6924.5378	-6923.5640	-6920.5439	-6922.2400	-6920.9597	-6920.0297	-6919.5154	-6919.1215	-6920.0078	-6918.9573	-6916.4516	-6919.1652	-6916.6267	-6917.1957	-6915.5544	-6915.1714	-6913.8365	-6913.7380	-6914.2851	-6913.8474	-6914.0553	-6913.3659	-6913.8912	-6910.8274	-6910.8493	-6912.0091	-6910.3240	-6908.4092	-6909.5800	-6910.4882	-6908.2888	-6908.0153	-6907.2493	-6906.9320	-6906.3411	-6906.4068	-6905.0062	-6905.4658	-6904.4153	-6904.6123	-6903.5728	-6903.4305	-6903.0147	-6904.0324	-6901.7345	-6901.7126	-6901.0889	-6902.3144	-6900.5090	-6899.3382	-6900.7388	-6900.0823	-6899.0865	-6899.6336	-6899.6665	-6898.4081	-6898.1783	-6896.4386	-6897.2920	-6896.3401	-6894.5456	-6895.8039	-6895.5194	-6892.8933	-6893.3529	-6893.4185	-6891.6788	-6890.9347	-6890.1797	-6890.1140	-6891.6897	-6890.1469	-6887.7834	-6888.2539	-6888.9542	-6889.2606	-6888.1007	-6861.0738	-6817.6994	-6726.0158	-6721.5842	-6721.5295	-6721.0371	-6720.4025	-6719.3739	-6718.4876	-6719.2864	-6715.7959	-6717.2621	-6718.3892	-6719.1989	-6717.7436	-6717.6123	-6716.5728	-6716.8244	-6715.6865	-6715.3910	-6715.8397	-6723.4663	-6761.4900	-6872.3660	-6883.4175	-6878.9969	-6880.1020	-6878.0449	-6877.1367	-6877.7495	-6877.4869	-6876.7647	-6874.6419	-6875.0577	-6873.8869	-6873.3508	-6872.4426	-6872.6395	-6871.5344	-6873.0006	-6871.3265	-6870.9545	-6869.7508	-6869.3022	-6868.9849	-6869.1819
-6924.3737	-6923.8484	-6923.1919	-6923.3998	-6923.3342	-6922.7105	-6922.2618	-6920.7737	-6919.4716	-6919.5920	-6918.7057	-6919.1981	-6919.7889	-6918.4649	-6917.8522	-6916.7252	-6916.2546	-6916.1343	-6914.7994	-6913.0377	-6915.1495	-6914.7775	-6912.6656	-6913.0158	-6912.6219	-6912.1076	-6912.3374	-6910.8274	-6910.1709	-6910.0505	-6909.5909	-6909.0329	-6907.4572	-6907.7417	-6906.7132	-6908.5405	-6907.0086	-6906.5819	-6907.5776	-6906.2864	-6905.0828	-6906.0676	-6905.9582	-6905.2688	-6905.2141	-6904.4372	-6902.2050	-6901.5704	-6903.2774	-6901.5594	-6900.4652	-6899.8634	-6899.1960	-6898.6817	-6900.2245	-6900.1260	-6898.5504	-6897.3686	-6899.0209	-6896.4386	-6896.0118	-6896.1212	-6896.9857	-6896.1431	-6894.6441	-6895.5522	-6894.0641	-6894.1298	-6891.9851	-6891.7225	-6890.7159	-6892.2587	-6891.2192	-6890.9785	-6889.9827	-6889.3809	-6889.5779	-6888.7463	-6887.2034	-6887.8271	-6888.3742	-6870.1995	-6770.5610	-6720.3040	-6720.0961	-6718.9910	-6719.6366	-6718.4329	-6718.9691	-6718.8816	-6718.3016	-6718.5861	-6718.3892	-6718.2469	-6717.6670	-6716.4524	-6714.5923	-6715.9272	-6716.1460	-6715.5661	-6713.5309	-6714.2640	-6714.3515	-6715.4129	-6716.0476	-6768.7555	-6865.5272	-6880.9774	-6879.0188	-6878.8328	-6878.2747	-6877.3337	-6875.9112	-6875.9331	-6875.9222	-6874.0730	-6874.1277	-6872.8256	-6872.5520	-6871.0311	-6872.0487	-6871.8627	-6870.1776	-6869.2475	-6868.0220	-6867.6609	-6868.5253	-6868.8645
-6923.6077	-6923.0387	-6922.0868	-6922.6120	-6922.2181	-6921.9226	-6920.8503	-6920.5658	-6920.2813	-6919.9640	-6918.5525	-6917.7647	-6917.0097	-6916.7142	-6915.7732	-6917.0534	-6915.8279	-6916.2437	-6915.4121	-6914.5586	-6914.5149	-6913.0049	-6914.3398	-6912.8735	-6911.4730	-6910.6961	-6911.4839	-6911.5496	-6911.7356	-6910.5867	-6910.4225	-6907.5010	-6907.7089	-6908.1575	-6907.5885	-6908.2560	-6908.2888	-6908.2122	-6906.5819	-6905.7831	-6905.8597	-6906.4396	-6904.4372	-6902.9600	-6902.1065	-6903.4743	-6902.4239	-6902.3144	-6899.7212	-6899.4367	-6899.5352	-6899.7759	-6899.2397	-6898.5613	-6898.9771	-6897.5328	-6897.1279	-6896.1650	-6897.2811	-6895.8477	-6896.0337	-6895.2130	-6896.1541	-6894.8738	-6893.3419	-6892.7183	-6893.0465	-6892.8386	-6892.6417	-6893.3201	-6891.3286	-6891.3067	-6890.2344	-6890.1469	-6888.4399	-6888.9979	-6887.9475	-6888.0788	-6887.3566	-6885.9342	-6878.8109	-6815.5657	-6723.1490	-6718.6846	-6718.6737	-6718.3673	-6718.2688	-6717.6998	-6718.6080	-6717.4263	-6717.6342	-6716.3868	-6717.6232	-6716.0257	-6716.4962	-6715.6865	-6715.0628	-6716.0038	-6716.1898	-6715.8397	-6714.7783	-6713.5965	-6713.2245	-6713.2792	-6712.3382	-6714.8986	-6753.8634	-6876.1520	-6879.3470	-6878.9750	-6877.2352	-6876.1520	-6875.0468	-6875.1125	-6874.5872	-6873.6025	-6873.0553	-6872.2785	-6870.7466	-6869.4335	-6870.1557	-6869.7727	-6870.4074	-6868.3065	-6868.3393	-6867.4421	-6868.6457	-6866.4901
-6923.0825	-6921.6710	-6921.3318	-6919.6139	-6919.4716	-6920.4126	-6919.7233	-6918.7057	-6918.8370	-6917.3707	-6916.9331	-6916.0030	-6915.8388	-6916.9768	-6914.8431	-6914.1209	-6914.2304	-6914.6899	-6913.6723	-6913.8693	-6913.1471	-6913.0049	-6910.5538	-6910.4882	-6909.9739	-6909.4924	-6910.9368	-6910.3569	-6909.0001	-6908.2451	-6910.3240	-6908.6718	-6909.5581	-6908.8687	-6908.2998	-6906.3521	-6906.8116	-6905.8597	-6905.9363	-6905.4439	-6905.4439	-6905.2469	-6904.2512	-6903.7916	-6903.7588	-6902.1175	-6900.9905	-6902.6208	-6900.3120	-6900.4324	-6899.5242	-6898.8896	-6898.7692	-6897.5546	-6898.2768	-6897.7735	-6896.4604	-6897.2592	-6897.0294	-6896.0337	-6895.4538	-6894.3705	-6894.9942	-6893.7468	-6893.1450	-6891.4380	-6891.2848	-6891.0660	-6891.7991	-6890.8253	-6890.3766	-6889.5888	-6888.9323	-6888.3524	-6887.1487	-6887.2144	-6885.8138	-6885.9451	-6885.5184	-6886.0874	-6809.5476	-6722.0438	-6716.6931	-6716.9339	-6717.2512	-6718.5095	-6718.0609	-6717.1965	-6716.1351	-6716.5181	-6716.5947	-6714.3625	-6714.5594	-6714.4391	-6715.1612	-6713.0713	-6713.7278	-6712.9838	-6714.0123	-6713.3667	-6712.9291	-6712.4476	-6713.1479	-6713.0275	-6712.5133	-6711.6817	-6711.4409	-6774.3360	-6874.1167	-6878.4279	-6877.1149	-6876.4583	-6874.8498	-6875.4407	-6873.3289	-6873.6681	-6871.8298	-6872.3222	-6871.5235	-6870.4074	-6870.3198	-6869.0177	-6867.8907	-6866.8184	-6866.7637	-6867.3764	-6867.5624	-6865.4287
-6919.8984	-6919.0230	-6918.8698	-6919.6905	-6920.7190	-6918.6510	-6919.9750	-6917.7756	-6919.3403	-6917.8194	-6915.5981	-6915.3574	-6914.8541	-6914.6680	-6915.6747	-6914.5258	-6914.1209	-6914.6243	-6913.6067	-6912.5234	-6911.1885	-6910.7508	-6910.3022	-6909.1751	-6908.5952	-6910.4225	-6909.2627	-6909.1095	-6908.1685	-6908.6061	-6907.2165	-6905.6190	-6904.9843	-6904.7655	-6906.1442	-6905.3345	-6905.5752	-6904.5685	-6904.3716	-6903.9339	-6904.2293	-6903.0147	-6902.2379	-6900.3449	-6900.3777	-6901.3297	-6902.1175	-6899.7759	-6898.6160	-6897.9923	-6898.1565	-6898.5066	-6897.4124	-6896.8653	-6897.2592	-6897.6969	-6894.9176	-6893.5498	-6895.0927	-6895.1693	-6893.4623	-6891.8210	-6891.2301	-6890.9675	-6892.4338	-6891.8319	-6890.0156	-6889.5232	-6890.2563	-6889.2058	-6888.2539	-6887.7177	-6887.6411	-6884.4898	-6886.0545	-6886.8752	-6886.9299	-6886.7001	-6886.2515	-6856.6860	-6745.1316	-6717.8639	-6716.3649	-6716.7369	-6716.0913	-6717.3497	-6716.8463	-6716.4524	-6715.0081	-6715.2160	-6715.3254	-6715.3035	-6715.6318	-6715.3910	-6713.1917	-6712.5789	-6712.8525	-6711.1346	-6711.9115	-6712.1631	-6712.0318	-6709.7012	-6709.9528	-6709.3291	-6709.4276	-6709.2197	-6710.4999	-6713.1370	-6814.8545	-6876.0535	-6873.0335	-6874.1277	-6874.1714	-6872.1909	-6870.9654	-6869.9587	-6870.3855	-6870.6700	-6870.2542	-6870.8232	-6867.6500	-6867.8032	-6866.7308	-6866.3807	-6866.0962	-6866.6652	-6866.3260	-6866.0087
-6918.9136	-6918.6400	-6917.7756	-6917.3051	-6917.5349	-6917.1957	-6916.2437	-6915.4887	-6917.5020	-6914.8541	-6914.8869	-6913.3222	-6913.3222	-6914.3617	-6913.0486	-6911.4511	-6911.6809	-6911.1885	-6910.6414	-6909.8973	-6910.2146	-6909.2517	-6908.4311	-6909.0548	-6909.2298	-6908.9672	-6907.6542	-6907.8511	-6906.2974	-6906.3740	-6904.9953	-6907.3150	-6900.3668	-6887.3238	-6838.9380	-6880.8789	-6844.7591	-6883.8661	-6895.2021	-6901.6360	-6903.0038	-6899.8963	-6899.4805	-6900.1807	-6899.8415	-6897.6860	-6897.4562	-6898.0142	-6897.0185	-6896.3291	-6896.4167	-6895.5960	-6896.9747	-6896.7996	-6896.1978	-6894.9833	-6894.6331	-6894.0860	-6894.0094	-6894.9833	-6893.1888	-6893.1231	-6892.7073	-6892.6635	-6889.7092	-6890.6830	-6889.0089	-6890.3001	-6890.0046	-6887.8162	-6888.0679	-6886.6016	-6886.7986	-6885.7153	-6886.5141	-6885.4637	-6885.9013	-6883.3628	-6883.6910	-6788.0792	-6720.2603	-6716.5728	-6716.1679	-6715.6974	-6715.6974	-6716.5947	-6716.7697	-6716.4415	-6714.9752	-6716.0476	-6714.8549	-6714.0233	-6713.5090	-6714.7673	-6713.5309	-6713.9795	-6712.1194	-6712.4367	-6710.4014	-6709.8653	-6709.7559	-6711.0033	-6710.7188	-6709.3948	-6709.3729	-6708.0817	-6708.1583	-6711.4081	-6746.7838	-6868.1095	-6875.5173	-6873.2851	-6873.0116	-6872.2238	-6871.5235	-6869.4992	-6870.0572	-6869.5320	-6868.2408	-6867.9016	-6867.2013	-6867.0700	-6866.4792	-6866.4682	-6865.0020	-6864.4221	-6864.1157	-6864.9692
-6918.3555	-6919.8436	-6918.0054	-6917.4692	-6916.2546	-6916.3641	-6916.1999	-6916.7252	-6914.7775	-6914.5586	-6914.6133	-6914.8103	-6913.9349	-6914.2741	-6914.1866	-6912.8954	-6912.1295	-6911.5605	-6910.6085	-6909.5690	-6910.3459	-6909.7332	-6909.2298	-6907.6542	-6907.9058	-6908.6827	-6907.2274	-6906.2208	-6906.4177	-6895.0927	-6860.3844	-6784.3808	-6768.4382	-6746.6197	-6741.2581	-6740.7438	-6738.7524	-6751.1935	-6742.6368	-6796.1764	-6817.8964	-6875.1672	-6898.6051	-6895.1146	-6900.1807	-6900.1917	-6899.8744	-6898.7583	-6897.0841	-6896.3948	-6896.2744	-6896.4604	-6896.5152	-6894.8301	-6895.7820	-6894.5237	-6895.7273	-6893.7030	-6892.6964	-6893.2763	-6891.8319	-6889.9608	-6891.4818	-6892.8167	-6890.0593	-6890.7706	-6889.1949	-6889.6107	-6889.0417	-6889.5451	-6888.2211	-6888.2211	-6887.5427	-6885.3542	-6885.5840	-6885.5731	-6883.7567	-6883.8989	-6870.5387	-6741.1158	-6717.1308	-6716.1023	-6715.7521	-6714.2968	-6714.0123	-6714.4500	-6714.7783	-6714.1874	-6714.2093	-6713.4543	-6714.6470	-6712.0428	-6712.0756	-6712.7868	-6711.8458	-6711.3206	-6710.1498	-6711.2221	-6710.6969	-6711.1127	-6709.0009	-6709.1869	-6710.0294	-6710.5218	-6709.5808	-6707.5127	-6707.9723	-6709.1869	-6714.3953	-6809.2521	-6874.6091	-6874.3027	-6873.4821	-6872.4973	-6871.2499	-6870.2979	-6870.7356	-6867.7375	-6868.1861	-6865.8664	-6863.8312	-6865.2974	-6866.2494	-6865.6913	-6864.2251	-6863.1418	-6861.8397	-6861.8616
-6918.1039	-6917.5786	-6916.8565	-6917.8960	-6915.8279	-6916.0467	-6916.8127	-6914.4273	-6915.6091	-6916.1343	-6912.3921	-6912.4796	-6911.7465	-6911.5605	-6910.2693	-6910.7180	-6909.9958	-6909.2736	-6908.9125	-6910.1599	-6908.9016	-6909.7332	-6908.6827	-6907.1290	-6908.1794	-6907.4244	-6907.0524	-6905.6299	-6841.3343	-6775.9554	-6746.6416	-6740.0763	-6739.0150	-6737.1767	-6738.8946	-6737.9098	-6737.2642	-6737.6581	-6737.1658	-6737.6144	-6737.7785	-6745.4489	-6795.5527	-6839.4304	-6887.5536	-6902.2597	-6899.8525	-6899.5680	-6898.9224	-6897.6641	-6897.6203	-6897.0732	-6895.4428	-6893.1669	-6894.6441	-6894.9614	-6893.6264	-6892.0398	-6891.7006	-6891.5693	-6892.2477	-6891.4927	-6891.7772	-6890.8362	-6890.5408	-6890.0703	-6889.6545	-6889.0308	-6888.7244	-6888.3086	-6888.1335	-6888.1226	-6885.2229	-6886.2953	-6883.4175	-6884.2491	-6882.1154	-6883.0564	-6814.4168	-6717.0433	-6716.3758	-6716.0366	-6715.0299	-6713.5199	-6714.9752	-6713.9686	-6713.7388	-6712.6993	-6714.0014	-6713.1479	-6714.2312	-6713.5309	-6712.2944	-6710.1826	-6710.0075	-6710.8391	-6711.1674	-6710.4233	-6711.0908	-6711.3425	-6709.8653	-6708.1474	-6708.1693	-6708.2021	-6707.9395	-6708.5194	-6707.7972	-6707.4690	-6707.7754	-6748.3048	-6853.3159	-6874.8827	-6873.0335	-6871.5782	-6871.1514	-6870.2870	-6869.0505	-6868.2408	-6866.8950	-6865.5163	-6865.9977	-6864.7613	-6865.6038	-6865.3521	-6864.8160	-6862.4197	-6862.4525	-6862.4197
-6917.9069	-6917.2832	-6916.9440	-6915.0948	-6915.7513	-6914.1100	-6915.1495	-6914.7994	-6914.8541	-6912.2827	-6913.1252	-6911.8997	-6910.9149	-6912.2170	-6910.9149	-6909.8864	-6910.5538	-6909.7222	-6909.4268	-6908.8578	-6908.9125	-6906.9977	-6908.2232	-6906.3630	-6905.3673	-6904.4482	-6893.0684	-6821.1352	-6748.5017	-6739.7481	-6738.5335	-6737.2861	-6737.8442	-6736.3342	-6736.3560	-6736.3451	-6736.3232	-6735.6886	-6736.3998	-6735.8855	-6734.2770	-6735.3603	-6736.1481	-6739.0259	-6770.8673	-6858.3383	-6900.0713	-6901.3406	-6898.5285	-6898.3315	-6897.9704	-6896.0446	-6895.7820	-6895.3443	-6893.4733	-6894.2392	-6894.9067	-6893.1450	-6891.5256	-6892.0508	-6892.3900	-6891.5912	-6891.5912	-6889.7420	-6889.8624	-6887.2910	-6888.8119	-6886.6235	-6886.9190	-6886.4266	-6887.3785	-6886.5579	-6886.2405	-6885.1573	-6884.1834	-6883.9208	-6883.3190	-6880.2552	-6793.2876	-6715.8725	-6713.7935	-6713.5090	-6714.1327	-6713.1479	-6713.6950	-6713.8044	-6713.7497	-6713.5309	-6713.0713	-6711.5285	-6711.7911	-6711.3862	-6712.4367	-6711.3315	-6710.9486	-6710.2045	-6710.7954	-6709.5589	-6709.5480	-6709.3620	-6707.3924	-6706.5389	-6707.3048	-6707.1626	-6706.7468	-6706.9219	-6705.8167	-6705.4885	-6706.7577	-6715.3473	-6832.6025	-6870.4621	-6870.1010	-6870.4621	-6868.5800	-6868.9411	-6868.2627	-6868.2955	-6867.8907	-6865.0676	-6864.0719	-6864.0719	-6863.2513	-6862.5728	-6863.2184	-6862.5619	-6862.4525	-6861.6428
-6917.1957	-6915.1276	-6916.4407	-6915.9154	-6914.3507	-6913.0814	-6912.7204	-6913.5191	-6913.8255	-6912.9501	-6913.5082	-6911.4073	-6911.2979	-6909.4924	-6909.5581	-6909.1751	-6909.2189	-6909.4159	-6909.1095	-6907.4900	-6906.5162	-6907.0961	-6905.7503	-6906.1442	-6905.7284	-6886.4375	-6793.8785	-6738.0521	-6737.3737	-6737.2642	-6737.8660	-6736.8156	-6737.0126	-6736.5968	-6736.8156	-6734.8570	-6734.2114	-6733.6534	-6735.2290	-6734.1129	-6734.6710	-6732.1215	-6731.9245	-6734.4084	-6736.8375	-6740.3827	-6790.3442	-6885.9123	-6897.8391	-6898.9443	-6897.5109	-6898.7254	-6896.0337	-6894.5128	-6892.7292	-6893.7687	-6894.5237	-6893.5170	-6892.2149	-6889.3372	-6890.3985	-6889.4137	-6891.3614	-6889.3372	-6889.0417	-6886.6892	-6887.5427	-6888.2977	-6887.7177	-6886.5797	-6885.9779	-6884.9931	-6884.5008	-6882.4218	-6883.9646	-6884.2163	-6883.7786	-6878.9750	-6753.2725	-6714.8986	-6714.4172	-6714.2202	-6713.1589	-6712.8962	-6711.6598	-6712.8087	-6712.8306	-6711.0251	-6711.8786	-6711.9443	-6710.1060	-6709.9966	-6708.9571	-6702.8514	-6709.9309	-6709.4604	-6708.8258	-6707.8082	-6708.1255	-6707.0641	-6707.7316	-6707.0203	-6707.5237	-6706.4185	-6706.7796	-6705.7182	-6705.4666	-6704.9304	-6705.1711	-6706.7030	-6780.6496	-6868.9411	-6867.8141	-6868.7551	-6868.7332	-6866.6433	-6864.7613	-6866.2275	-6864.8160	-6866.0743	-6864.0938	-6863.2075	-6863.4044	-6862.0257	-6860.8221	-6861.8397	-6861.4786	-6860.8768
-6914.3726	-6913.6942	-6913.8912	-6914.5477	-6914.6790	-6912.5125	-6911.2213	-6911.8450	-6913.3003	-6910.4006	-6912.2061	-6909.8317	-6908.4311	-6909.0329	-6909.5909	-6909.0876	-6907.2384	-6905.9582	-6905.3345	-6905.7174	-6905.8487	-6903.9776	-6903.5728	-6904.4700	-6850.4600	-6763.4596	-6737.2533	-6737.0563	-6735.0868	-6735.4697	-6735.1196	-6735.5573	-6733.2485	-6734.8789	-6734.3755	-6734.5397	-6734.8132	-6733.6643	-6734.0910	-6733.8941	-6734.3646	-6733.7299	-6732.3731	-6731.8807	-6731.3117	-6731.4212	-6735.8965	-6759.1593	-6870.0572	-6899.3273	-6898.4519	-6896.8544	-6896.6465	-6896.0228	-6894.4143	-6892.6526	-6892.1493	-6891.9304	-6891.3067	-6891.2739	-6888.6150	-6888.6916	-6887.8053	-6888.1445	-6886.8205	-6887.5755	-6887.2910	-6886.0983	-6885.0479	-6884.6649	-6884.8071	-6884.9713	-6885.3652	-6884.1178	-6882.7281	-6881.9075	-6883.9974	-6853.6551	-6757.8900	-6711.9005	-6711.7036	-6712.8853	-6711.8130	-6711.9333	-6712.5789	-6712.0865	-6711.6379	-6711.7036	-6711.1236	-6710.5218	-6709.7887	-6710.9376	-6709.2854	-6704.6131	-6702.9718	-6708.7930	-6708.3881	-6707.9067	-6706.6374	-6704.9195	-6706.0246	-6705.1164	-6704.3833	-6702.5450	-6703.1797	-6704.0879	-6705.0398	-6702.5669	-6702.3262	-6703.9785	-6747.7030	-6847.8667	-6869.9697	-6868.7442	-6866.6433	-6866.2494	-6865.2974	-6864.7175	-6863.2184	-6863.9844	-6862.1789	-6863.2294	-6862.4087	-6862.4525	-6860.9315	-6860.7127	-6860.3844	-6859.9358
-6915.8717	-6915.6419	-6912.7970	-6912.7970	-6912.3593	-6913.4425	-6912.6985	-6911.2979	-6910.4772	-6910.1052	-6909.5909	-6911.2322	-6910.7508	-6909.4596	-6908.9235	-6909.2517	-6908.7046	-6907.2493	-6907.4572	-6906.1551	-6906.6366	-6905.2250	-6904.4044	-6866.8403	-6790.3880	-6737.1110	-6737.3189	-6736.4217	-6735.8746	-6735.4807	-6734.1129	-6735.3494	-6734.7585	-6734.2442	-6732.5373	-6733.0406	-6732.4825	-6732.0011	-6731.2570	-6732.4388	-6731.9026	-6729.7689	-6729.9659	-6730.1628	-6730.8303	-6730.4692	-6729.5063	-6729.8565	-6788.5278	-6891.0988	-6898.3206	-6896.3073	-6896.1322	-6894.2064	-6894.2173	-6892.8496	-6892.5979	-6891.9195	-6891.1317	-6890.5189	-6889.5122	-6890.0156	-6888.6478	-6888.9104	-6886.9080	-6886.1640	-6885.6387	-6886.4047	-6886.2515	-6885.6168	-6884.2600	-6884.7743	-6884.0631	-6883.2971	-6882.2795	-6881.3604	-6882.2576	-6869.7508	-6739.9779	-6712.3820	-6712.4038	-6711.8677	-6713.2902	-6711.8130	-6712.5242	-6711.9443	-6711.8786	-6711.1236	-6710.3358	-6709.9747	-6709.7012	-6709.6793	-6709.6793	-6709.4933	-6708.3881	-6708.8039	-6707.9504	-6707.7754	-6706.1997	-6706.2872	-6704.8210	-6705.4119	-6704.8319	-6704.6350	-6703.5517	-6703.2891	-6704.2301	-6703.8800	-6704.2629	-6703.9456	-6719.6475	-6820.9164	-6869.4554	-6867.8032	-6867.8907	-6865.1661	-6865.9211	-6864.1923	-6862.9668	-6861.5333	-6862.0914	-6861.1613	-6860.5595	-6860.2312	-6860.2094	-6860.4720	-6858.7869	-6858.8416
-6914.9416	-6913.6286	-6913.1143	-6912.6219	-6912.2061	-6912.5672	-6911.2541	-6911.0681	-6909.4924	-6910.4772	-6910.5210	-6910.2803	-6908.2998	-6907.7745	-6907.1399	-6906.7241	-6905.6955	-6904.7764	-6904.8202	-6903.4634	-6903.2008	-6902.5223	-6867.2889	-6769.0619	-6736.4545	-6735.5463	-6735.4807	-6735.9950	-6735.8855	-6735.1634	-6735.0321	-6734.9445	-6734.3755	-6734.8132	-6733.5658	-6733.5877	-6732.9421	-6732.4935	-6731.8151	-6731.3993	-6730.7537	-6729.4844	-6727.6024	-6729.6048	-6729.1999	-6728.6747	-6729.7251	-6727.4273	-6730.1628	-6784.3589	-6872.3441	-6895.3662	-6893.2435	-6892.1930	-6892.9809	-6891.3067	-6890.8253	-6890.3329	-6889.8733	-6888.7463	-6888.0679	-6888.1116	-6888.4290	-6886.7876	-6885.8904	-6885.3652	-6884.2163	-6885.2995	-6883.1658	-6883.1877	-6882.9579	-6882.0607	-6880.9774	-6881.4151	-6881.9622	-6881.3604	-6880.2990	-6836.0930	-6727.7118	-6712.0646	-6712.2725	-6711.9333	-6711.0799	-6709.9200	-6709.9747	-6710.3139	-6711.6051	-6710.0294	-6709.8543	-6709.7668	-6709.9200	-6704.7335	-6669.6422	-6625.6551	-6649.6511	-6705.4447	-6709.3948	-6708.7601	-6707.1735	-6707.1735	-6706.8015	-6706.5717	-6705.5432	-6704.4052	-6703.0484	-6702.3153	-6700.6958	-6701.1445	-6702.1074	-6703.5189	-6708.9243	-6824.5491	-6869.2475	-6867.2451	-6866.6433	-6865.3084	-6862.9886	-6862.6494	-6862.7151	-6861.9382	-6861.0738	-6861.6647	-6861.0191	-6859.2027	-6859.7170	-6859.2465	-6859.1042	-6858.4915
-6914.0225	-6913.7051	-6914.1538	-6912.5234	-6912.3593	-6911.3745	-6910.4663	-6909.1532	-6910.1818	-6910.8274	-6908.2341	-6906.7788	-6905.7065	-6905.9253	-6905.8487	-6905.6737	-6906.2098	-6905.0390	-6904.2512	-6904.2512	-6904.0214	-6896.1650	-6833.3575	-6735.8418	-6736.3670	-6736.4873	-6736.1700	-6735.5244	-6735.6010	-6735.2400	-6735.9950	-6735.3056	-6734.3427	-6731.6728	-6732.6904	-6732.2747	-6732.6139	-6731.7057	-6730.3270	-6730.7646	-6730.7756	-6730.5239	-6729.6267	-6729.8236	-6727.8869	-6727.5148	-6727.1209	-6729.1452	-6729.3093	-6735.2728	-6812.3050	-6890.2563	-6895.7930	-6893.3748	-6891.9961	-6892.6854	-6892.6307	-6891.2301	-6890.3219	-6889.3153	-6889.8405	-6887.0940	-6886.2734	-6885.2120	-6885.3433	-6885.3761	-6885.2010	-6883.0345	-6884.0959	-6883.5926	-6882.6078	-6881.6668	-6879.7847	-6879.5002	-6879.8504	-6880.2333	-6879.1829	-6824.7899	-6717.9077	-6712.6227	-6711.2987	-6711.2659	-6710.4124	-6710.6641	-6709.0884	-6709.4495	-6710.3467	-6710.0075	-6709.6464	-6707.6222	-6708.7273	-6706.8124	-6664.3353	-6613.1264	-6613.1593	-6635.8859	-6691.2091	-6707.6003	-6707.0751	-6705.1164	-6703.7815	-6704.0660	-6705.0836	-6703.7049	-6702.1840	-6701.8447	-6701.2648	-6702.9937	-6701.9542	-6703.8143	-6705.7073	-6817.1304	-6868.2627	-6867.5624	-6865.4506	-6866.4792	-6865.1114	-6863.6780	-6863.6889	-6863.5357	-6863.0105	-6861.7631	-6859.9358	-6859.7170	-6857.0690	-6857.8459	-6858.6993	-6856.7626
-6913.7489	-6912.1733	-6913.0158	-6912.1295	-6912.8188	-6911.5167	-6909.2408	-6907.7417	-6907.9058	-6907.1290	-6908.4530	-6907.6761	-6906.4834	-6906.0348	-6905.7065	-6906.8226	-6906.0348	-6907.2712	-6903.6166	-6904.0214	-6902.8944	-6855.5918	-6747.1778	-6735.3494	-6735.0211	-6735.2837	-6734.8242	-6735.2181	-6734.7038	-6734.2661	-6733.3251	-6732.4607	-6732.8874	-6730.9507	-6730.6771	-6730.6115	-6731.0601	-6730.8303	-6730.3488	-6728.7841	-6731.1148	-6730.1191	-6729.2328	-6728.1385	-6727.6133	-6727.5148	-6728.2370	-6728.1276	-6727.8541	-6728.3793	-6749.3005	-6877.4212	-6893.0246	-6894.5128	-6890.3110	-6890.2125	-6889.0636	-6889.5122	-6887.4879	-6886.7220	-6887.3348	-6886.8752	-6886.0983	-6884.7524	-6885.9451	-6884.7743	-6883.7567	-6881.9075	-6882.7281	-6881.8199	-6882.4327	-6880.6382	-6880.9227	-6881.0431	-6880.3537	-6879.5878	-6879.9051	-6835.6444	-6721.2013	-6711.9771	-6711.6160	-6711.5504	-6710.7625	-6711.0470	-6709.4604	-6710.0513	-6709.1650	-6708.9899	-6707.1517	-6707.7425	-6707.3158	-6706.6811	-6702.3590	-6653.1416	-6633.8179	-6640.9083	-6669.7298	-6704.1754	-6703.8253	-6701.8447	-6702.4903	-6703.5955	-6702.5669	-6702.1730	-6701.0241	-6701.3852	-6701.6916	-6701.3195	-6701.4727	-6701.7900	-6703.8253	-6786.6458	-6867.3326	-6866.6980	-6865.2974	-6864.6628	-6862.7260	-6862.8792	-6861.1613	-6861.3692	-6860.8221	-6860.5048	-6858.2288	-6858.1085	-6858.3820	-6858.5133	-6857.2331	-6856.1717
-6912.6547	-6911.7137	-6912.1076	-6911.6699	-6909.4268	-6909.5034	-6909.7222	-6909.1532	-6909.4924	-6908.6609	-6907.9715	-6907.2165	-6906.8445	-6904.6451	-6905.0937	-6904.5904	-6904.6561	-6904.4263	-6904.2403	-6902.8397	-6896.8325	-6780.0259	-6736.8922	-6735.7652	-6734.5834	-6735.4916	-6734.5506	-6734.9117	-6733.8503	-6734.6819	-6733.2813	-6733.4783	-6731.9902	-6732.4825	-6730.9397	-6730.7975	-6731.2680	-6730.1081	-6730.0862	-6730.0753	-6730.1409	-6729.1124	-6728.8388	-6728.1057	-6728.4230	-6727.7337	-6726.3003	-6723.8930	-6726.2456	-6727.3507	-6731.0820	-6829.1229	-6893.9766	-6892.5104	-6891.1207	-6889.7311	-6888.6150	-6889.9061	-6887.7068	-6886.5141	-6886.4922	-6887.0940	-6884.0740	-6883.5816	-6884.4132	-6883.8114	-6882.7281	-6881.0212	-6881.5792	-6882.5421	-6881.2947	-6880.2771	-6881.3166	-6879.7847	-6879.6096	-6878.4170	-6878.4607	-6851.2806	-6730.6771	-6707.5893	-6707.7425	-6705.2258	-6707.5784	-6708.2787	-6706.6264	-6706.8890	-6706.1669	-6706.8234	-6705.4009	-6706.3966	-6705.5541	-6707.0751	-6703.9894	-6704.7553	-6704.1316	-6702.3590	-6702.9171	-6703.4095	-6704.0769	-6702.9390	-6702.3919	-6702.4794	-6702.6216	-6701.7572	-6700.4113	-6698.9451	-6700.5755	-6700.3785	-6701.1335	-6700.8053	-6703.9675	-6790.5850	-6866.7746	-6865.4178	-6864.0281	-6863.3607	-6863.0652	-6860.6908	-6859.7170	-6861.3254	-6859.5857	-6859.6623	-6858.3164	-6858.1194	-6856.0295	-6855.5699	-6855.5261	-6856.0842
-6910.5976	-6910.8055	-6909.8207	-6911.0134	-6908.3545	-6909.1861	-6908.0262	-6907.8511	-6907.5119	-6906.1879	-6905.5971	-6904.4810	-6904.9734	-6904.7436	-6903.8682	-6904.2184	-6902.7521	-6902.1941	-6902.8397	-6902.0190	-6866.0087	-6746.2914	-6733.5986	-6733.8941	-6732.6576	-6732.5920	-6733.0734	-6733.4892	-6734.0473	-6734.0910	-6732.7561	-6731.7275	-6729.9987	-6731.0929	-6729.5720	-6729.1452	-6729.9002	-6730.3160	-6729.1452	-6727.5805	-6727.2960	-6727.5477	-6726.7927	-6725.6766	-6727.3617	-6725.5672	-6725.0967	-6724.9982	-6725.5453	-6724.2979	-6727.0553	-6753.4913	-6882.1263	-6891.0222	-6890.5736	-6887.9913	-6887.8819	-6888.7025	-6887.8819	-6887.7615	-6885.0697	-6885.8685	-6884.9494	-6885.0479	-6883.9646	-6884.3366	-6881.9622	-6881.0431	-6880.4631	-6881.8965	-6881.2947	-6878.0887	-6879.1173	-6879.7300	-6879.1720	-6878.8437	-6877.7495	-6870.9326	-6762.0699	-6708.6945	-6707.1626	-6706.8234	-6707.4471	-6707.5127	-6707.8191	-6706.3857	-6705.1055	-6704.6131	-6704.5803	-6705.2696	-6704.9414	-6705.1821	-6704.7335	-6704.4599	-6703.2016	-6704.5256	-6703.9237	-6703.9237	-6703.0921	-6703.4970	-6702.0198	-6700.0831	-6699.5141	-6699.5797	-6699.2296	-6699.3390	-6700.0612	-6699.4375	-6699.0764	-6699.2734	-6720.1508	-6837.8985	-6866.0743	-6863.5248	-6862.4634	-6860.8221	-6862.2665	-6860.4829	-6859.8483	-6859.3668	-6858.7650	-6858.1413	-6857.5723	-6857.5833	-6855.8544	-6855.1869	-6853.8520	-6853.8082
-6910.3678	-6910.7617	-6908.2888	-6909.6675	-6908.5952	-6908.7593	-6907.7089	-6907.8402	-6906.2645	-6906.3630	-6906.2427	-6905.7503	-6904.8640	-6904.1199	-6902.5989	-6903.1898	-6901.4610	-6901.2421	-6902.1613	-6898.0361	-6800.8377	-6733.7628	-6734.1786	-6731.9245	-6731.4540	-6731.6619	-6731.0382	-6731.1695	-6731.0163	-6731.3665	-6731.0491	-6729.1890	-6730.3817	-6730.4802	-6729.8127	-6729.6923	-6728.1823	-6728.5981	-6727.0006	-6727.3179	-6726.2456	-6726.7380	-6726.7598	-6727.3507	-6726.1252	-6725.3046	-6725.0091	-6724.9106	-6724.4182	-6723.1818	-6722.0219	-6727.7009	-6803.4966	-6890.4095	-6891.0003	-6888.7682	-6888.1335	-6885.5293	-6885.8247	-6884.7852	-6885.2776	-6884.7524	-6884.3476	-6883.6473	-6882.6078	-6882.6734	-6881.1634	-6880.0364	-6879.0844	-6879.5221	-6878.8546	-6879.0625	-6876.7866	-6878.7233	-6877.2243	-6876.9398	-6875.8456	-6874.9702	-6777.8921	-6708.2349	-6705.8167	-6705.5432	-6707.8848	-6706.9875	-6706.8015	-6704.7444	-6705.8277	-6704.6350	-6703.7268	-6703.3329	-6703.0703	-6703.2782	-6702.9499	-6703.0812	-6703.1906	-6702.5888	-6702.4684	-6703.1469	-6700.3895	-6701.4618	-6700.1050	-6699.7986	-6698.9451	-6698.7919	-6698.7591	-6698.7591	-6697.8181	-6698.8685	-6698.2010	-6699.7329	-6709.3510	-6833.8608	-6864.5315	-6862.3868	-6862.8245	-6859.5528	-6860.6799	-6860.0233	-6859.8702	-6858.4586	-6858.3601	-6856.6751	-6857.2441	-6855.8763	-6855.9748	-6854.9134	-6853.6879	-6854.0818
-6909.6456	-6909.6019	-6909.6238	-6908.7922	-6907.7308	-6907.2056	-6906.3192	-6905.7393	-6905.4329	-6905.9582	-6904.9077	-6903.9667	-6902.8834	-6903.3211	-6901.2859	-6901.7564	-6900.4215	-6902.3910	-6899.9291	-6899.2507	-6805.9257	-6730.1519	-6731.1914	-6731.0710	-6732.2418	-6731.2789	-6730.8959	-6729.8893	-6729.9878	-6729.8017	-6730.2504	-6729.1343	-6728.6091	-6727.8759	-6726.2893	-6727.7993	-6727.6024	-6727.6243	-6726.4425	-6727.4820	-6725.3593	-6726.5301	-6725.0967	-6725.9392	-6723.5976	-6725.1951	-6724.3307	-6724.2541	-6722.8207	-6722.1204	-6720.8621	-6724.6918	-6804.1859	-6884.9384	-6888.6040	-6886.2624	-6886.7986	-6884.6868	-6885.6716	-6884.1725	-6883.6035	-6883.2971	-6883.3190	-6881.6558	-6881.6230	-6880.4194	-6880.7805	-6880.2333	-6879.7300	-6877.8480	-6877.5744	-6877.4978	-6876.7866	-6877.3118	-6876.9070	-6875.5283	-6875.4079	-6873.4821	-6820.8945	-6712.3601	-6705.8277	-6706.1340	-6704.8976	-6705.9699	-6704.8976	-6703.4532	-6702.6435	-6702.9171	-6702.9280	-6702.6326	-6703.1250	-6703.2563	-6702.9171	-6701.9651	-6702.5232	-6701.5055	-6701.8666	-6698.8794	-6699.0326	-6699.6892	-6700.3676	-6699.0326	-6696.7348	-6697.5445	-6698.0697	-6698.3980	-6697.9494	-6697.6868	-6695.7062	-6699.2187	-6730.5130	-6856.0623	-6863.2403	-6862.4853	-6859.3668	-6859.4872	-6860.3297	-6857.7474	-6857.1456	-6857.9662	-6857.3425	-6856.4891	-6855.3620	-6854.7493	-6853.6879	-6852.2982	-6852.8782	-6852.1122
-6908.9453	-6906.5162	-6906.9758	-6907.9715	-6907.6214	-6904.0105	-6904.4810	-6904.1089	-6905.0062	-6903.3649	-6902.6099	-6901.7236	-6901.9862	-6902.5333	-6901.2202	-6900.9905	-6899.6774	-6900.1041	-6899.9400	-6879.8285	-6753.5570	-6731.4431	-6729.8017	-6731.2242	-6730.7099	-6729.2875	-6729.7908	-6730.2613	-6729.7689	-6729.7251	-6730.4036	-6730.0315	-6729.5720	-6728.9483	-6728.8935	-6727.6243	-6727.8212	-6727.0991	-6726.7051	-6725.2717	-6724.5495	-6725.1295	-6724.7574	-6723.8055	-6724.2103	-6722.2517	-6721.6390	-6721.5514	-6722.0657	-6721.4092	-6720.7198	-6725.1404	-6778.0235	-6889.1183	-6887.9475	-6888.5493	-6886.0655	-6885.1901	-6884.2819	-6884.9931	-6883.2971	-6881.6886	-6881.8090	-6881.2619	-6880.1786	-6877.9574	-6879.2157	-6878.6030	-6878.8218	-6876.4912	-6877.3118	-6875.8237	-6876.8413	-6874.7842	-6874.3246	-6875.2875	-6875.0687	-6873.2523	-6851.4119	-6721.1028	-6705.2149	-6705.6198	-6704.8210	-6703.6392	-6703.8143	-6704.1316	-6701.5274	-6701.0569	-6701.4837	-6699.5469	-6693.4959	-6696.3190	-6701.0569	-6701.0460	-6698.6934	-6698.1135	-6699.9627	-6699.6563	-6699.3609	-6697.9713	-6683.8122	-6684.3703	-6696.0783	-6697.7634	-6697.5992	-6696.3518	-6696.4612	-6695.7719	-6697.2710	-6700.8600	-6779.9055	-6862.2227	-6862.2118	-6861.1613	-6860.5376	-6859.3668	-6857.2878	-6859.1589	-6857.4520	-6855.5918	-6855.2745	-6855.1541	-6854.5414	-6852.6265	-6853.1736	-6853.3706	-6853.1845	-6850.6788
-6905.9691	-6905.4329	-6904.6232	-6904.5685	-6904.1527	-6903.5728	-6903.4853	-6903.2664	-6903.3321	-6902.3473	-6902.9491	-6902.8725	-6901.2093	-6899.8306	-6900.9467	-6898.2768	-6899.5023	-6899.4257	-6898.1018	-6858.0319	-6748.5783	-6729.9440	-6730.2941	-6730.9835	-6729.7361	-6730.4254	-6729.4407	-6729.8783	-6729.1671	-6728.8388	-6727.9635	-6728.6309	-6725.2061	-6726.8255	-6726.6942	-6725.9830	-6725.5781	-6724.6043	-6725.0529	-6724.6152	-6724.6152	-6724.3635	-6724.1337	-6723.8602	-6723.4772	-6722.5471	-6723.0177	-6722.4158	-6722.3502	-6721.6280	-6721.5077	-6721.3763	-6744.7596	-6853.6113	-6888.7353	-6888.0241	-6885.8466	-6884.6211	-6883.1002	-6883.0892	-6882.5640	-6880.8461	-6881.0759	-6881.6449	-6880.5616	-6879.7300	-6878.7562	-6878.2528	-6878.4607	-6877.0711	-6876.6553	-6876.5240	-6875.5720	-6874.7951	-6873.8869	-6874.4888	-6874.1058	-6872.1143	-6863.1418	-6776.0211	-6703.5955	-6703.4861	-6703.6830	-6703.7815	-6703.0703	-6703.3329	-6702.2605	-6702.5669	-6688.1234	-6684.6876	-6686.4821	-6688.7799	-6692.8504	-6698.6168	-6698.7481	-6699.2077	-6698.3761	-6699.2187	-6697.5773	-6669.8282	-6656.7634	-6660.1117	-6669.1389	-6681.5581	-6697.0631	-6696.1986	-6696.8442	-6696.1549	-6697.6102	-6737.1876	-6841.8595	-6861.8944	-6860.4063	-6859.0276	-6858.9620	-6858.8635	-6857.2003	-6856.5109	-6855.0119	-6854.0052	-6853.6879	-6855.1104	-6853.4909	-6853.3706	-6852.0137	-6851.9809	-6851.4666	-6850.5694
-6904.8858	-6906.2536	-6904.0324	-6905.9363	-6904.1527	-6903.5728	-6902.4567	-6902.2597	-6901.0123	-6901.5266	-6902.0300	-6900.8482	-6900.8701	-6899.5899	-6900.3558	-6899.9838	-6898.5175	-6895.8696	-6896.6246	-6880.7257	-6746.4556	-6728.0510	-6728.1495	-6727.6571	-6729.0030	-6729.1452	-6726.6833	-6726.8474	-6726.6942	-6727.7556	-6726.9787	-6727.6352	-6726.4754	-6726.4535	-6721.5952	-6686.8651	-6671.0100	-6722.3064	-6723.4882	-6723.8055	-6723.3678	-6723.1708	-6722.6347	-6721.9125	-6722.2627	-6722.5253	-6721.7484	-6720.3806	-6720.5885	-6719.1879	-6719.9429	-6719.9976	-6725.8407	-6841.6735	-6887.6302	-6886.5469	-6883.7786	-6882.9032	-6881.6120	-6880.4303	-6880.8899	-6880.4960	-6879.5549	-6879.2267	-6878.1325	-6879.4017	-6877.2024	-6877.3994	-6876.3489	-6876.7866	-6876.1520	-6874.8280	-6873.8213	-6872.7709	-6873.7885	-6872.6724	-6872.8584	-6871.9502	-6870.6590	-6838.3471	-6732.5373	-6703.2016	-6703.0812	-6701.6478	-6700.5536	-6696.9755	-6699.8205	-6693.2005	-6684.6876	-6684.2827	-6685.9897	-6685.9787	-6684.0092	-6694.9622	-6696.8223	-6697.8071	-6697.1287	-6698.1792	-6697.1178	-6680.5952	-6657.1464	-6654.6078	-6659.7944	-6667.6617	-6692.4455	-6696.1330	-6696.0454	-6695.7500	-6702.1730	-6773.0667	-6861.7960	-6860.7346	-6859.9905	-6857.8896	-6858.4367	-6857.0799	-6857.2878	-6855.7778	-6854.0271	-6854.1474	-6853.4800	-6853.6332	-6852.7031	-6851.1821	-6849.8144	-6849.7378	-6849.7159	-6850.4381
-6905.8706	-6905.0609	-6905.1922	-6904.7545	-6904.0433	-6904.0980	-6902.0409	-6901.7892	-6900.0604	-6900.5418	-6899.9510	-6899.4805	-6898.3315	-6898.8020	-6898.6817	-6898.1127	-6898.3425	-6897.6203	-6896.5370	-6869.7290	-6740.5031	-6729.3203	-6729.4188	-6728.1276	-6728.5215	-6727.4273	-6727.5586	-6727.2194	-6726.9021	-6726.4863	-6726.9787	-6726.1471	-6725.8188	-6725.4030	-6703.4642	-6639.3108	-6630.4587	-6638.5011	-6706.6045	-6724.8888	-6723.3022	-6723.2912	-6722.3611	-6723.3240	-6721.5624	-6721.2013	-6721.0371	-6721.8906	-6720.6323	-6718.7502	-6718.4658	-6719.7679	-6724.5605	-6798.7806	-6887.6411	-6884.5117	-6883.5160	-6883.2424	-6882.8047	-6882.1263	-6881.4698	-6880.4412	-6878.7671	-6879.0188	-6878.5920	-6878.5154	-6877.7057	-6877.4212	-6874.3356	-6874.9702	-6875.3970	-6875.1343	-6872.5192	-6872.5520	-6872.4864	-6872.2128	-6871.5125	-6871.4250	-6871.9064	-6863.0981	-6797.2377	-6709.8215	-6702.7639	-6701.9870	-6700.0721	-6698.7372	-6690.0164	-6684.0420	-6686.1866	-6684.1624	-6684.9064	-6686.4274	-6685.9569	-6687.4122	-6694.1962	-6695.0607	-6695.3452	-6696.6363	-6695.6406	-6685.6505	-6654.5093	-6656.1397	-6660.7792	-6669.0185	-6686.4602	-6695.3014	-6695.9360	-6697.5445	-6736.6515	-6828.2694	-6861.5115	-6860.2531	-6858.3492	-6856.4453	-6854.5851	-6854.4757	-6855.4167	-6854.9353	-6855.2964	-6854.1146	-6853.4362	-6852.0247	-6852.0685	-6850.2302	-6850.2302	-6850.1864	-6849.1797	-6846.7944
-6905.0609	-6903.9886	-6904.9296	-6904.6342	-6903.9995	-6902.9381	-6902.4458	-6901.7892	-6900.5418	-6900.9467	-6899.8634	-6900.4215	-6898.1893	-6897.9704	-6898.3534	-6898.8786	-6897.3577	-6896.3291	-6894.9067	-6867.2779	-6748.4142	-6727.1538	-6727.0881	-6726.9896	-6727.3507	-6727.1100	-6726.8364	-6725.6547	-6725.1732	-6724.4182	-6724.0790	-6723.7727	-6724.1009	-6724.3307	-6721.9453	-6660.7354	-6628.4563	-6629.2988	-6671.7650	-6722.7332	-6722.7550	-6723.4772	-6722.1313	-6720.6542	-6720.8074	-6721.8797	-6721.0153	-6720.2165	-6718.8487	-6720.4244	-6718.5423	-6717.6232	-6723.9258	-6811.9220	-6886.4813	-6885.1463	-6883.9865	-6884.0412	-6882.0716	-6880.0473	-6879.5659	-6877.6838	-6877.5416	-6876.9617	-6878.9969	-6877.8480	-6877.7495	-6876.4255	-6874.7842	-6875.4845	-6874.8389	-6873.4602	-6874.4669	-6873.5368	-6872.1143	-6871.5891	-6869.4226	-6870.6590	-6868.9740	-6869.6852	-6846.8710	-6771.8084	-6705.1055	-6699.6344	-6698.3214	-6698.6825	-6700.1487	-6692.2267	-6684.4906	-6680.9126	-6681.5034	-6682.8055	-6684.2827	-6687.9702	-6696.8989	-6696.2643	-6696.4722	-6695.8923	-6695.3014	-6693.0692	-6684.6985	-6659.9585	-6661.6107	-6680.3545	-6694.8418	-6694.2947	-6693.6710	-6700.6192	-6782.1705	-6859.6732	-6858.6665	-6857.5176	-6855.9091	-6855.6465	-6854.8368	-6854.8368	-6853.5894	-6852.6046	-6851.5979	-6851.7949	-6851.9481	-6851.4010	-6851.6089	-6849.9895	-6849.4971	-6849.2673	-6849.5518	-6847.0460
-6905.3782	-6904.1089	-6905.0609	-6902.7302	-6902.1284	-6900.7169	-6900.4105	-6899.2835	-6898.9662	-6898.9881	-6898.2440	-6897.0732	-6897.3796	-6896.2854	-6896.3620	-6896.0118	-6894.2283	-6893.5608	-6893.5936	-6880.0802	-6763.6346	-6725.1514	-6725.1295	-6726.9021	-6726.4097	-6725.9173	-6724.5605	-6725.1842	-6724.7356	-6724.8888	-6724.0900	-6723.5866	-6722.8973	-6722.5034	-6722.2189	-6699.8533	-6677.8597	-6657.0370	-6699.5907	-6721.8140	-6722.0000	-6719.6475	-6717.8421	-6719.5490	-6719.5381	-6719.7350	-6718.9800	-6717.9077	-6717.1089	-6716.1132	-6716.5837	-6717.4919	-6722.5800	-6803.9343	-6881.8637	-6882.5531	-6879.7410	-6881.1853	-6880.2333	-6879.6534	-6878.8656	-6878.0559	-6878.0449	-6876.8851	-6876.6881	-6876.7100	-6876.4474	-6875.1015	-6875.0796	-6874.0730	-6873.5696	-6872.5630	-6873.1101	-6871.6110	-6871.8080	-6871.0420	-6870.0791	-6869.4882	-6869.9259	-6869.5539	-6866.8403	-6834.9222	-6736.6077	-6705.5651	-6697.3913	-6696.0017	-6696.7457	-6696.7786	-6683.5605	-6680.7703	-6683.2542	-6684.1842	-6681.5034	-6682.6086	-6695.6297	-6695.9579	-6695.5202	-6693.8023	-6695.0607	-6695.1810	-6694.3057	-6692.5549	-6693.3318	-6692.5549	-6693.2005	-6693.8570	-6696.6910	-6757.2992	-6838.3033	-6859.1480	-6857.6270	-6856.4891	-6854.6180	-6855.6465	-6854.0380	-6853.5566	-6852.5827	-6852.5718	-6851.0290	-6850.8101	-6850.2740	-6850.8648	-6850.4053	-6848.7421	-6848.0308	-6847.7354	-6847.8776	-6847.4837
-6902.5333	-6902.9053	-6902.8616	-6901.9971	-6900.1917	-6900.5090	-6900.1698	-6898.0033	-6898.4519	-6897.9923	-6898.5941	-6897.4343	-6897.9048	-6896.9419	-6896.2525	-6894.0094	-6893.5936	-6893.1669	-6892.9480	-6883.9974	-6782.9912	-6725.3155	-6723.6961	-6723.7945	-6723.3678	-6724.1775	-6724.1228	-6723.2146	-6721.5842	-6722.5471	-6721.9782	-6721.9016	-6720.1618	-6721.2779	-6721.2450	-6720.6542	-6720.3587	-6720.6213	-6720.1290	-6718.9910	-6718.2031	-6715.5333	-6719.6803	-6718.7393	-6718.9910	-6718.2141	-6718.0937	-6717.0761	-6716.5071	-6715.7959	-6715.7521	-6716.4415	-6724.6590	-6815.6642	-6882.7719	-6882.1263	-6879.8285	-6880.6929	-6880.1677	-6878.7671	-6877.3446	-6877.8699	-6876.6334	-6876.7100	-6875.5501	-6875.9769	-6872.3879	-6871.2937	-6871.6001	-6872.1034	-6873.3946	-6870.2432	-6870.1885	-6869.5648	-6868.5363	-6866.5010	-6869.1381	-6867.3217	-6867.0044	-6866.2931	-6866.6652	-6860.3735	-6831.8475	-6739.8247	-6700.5864	-6698.3542	-6696.8333	-6697.0740	-6682.9587	-6675.7151	-6678.8555	-6682.7399	-6681.6238	-6685.7599	-6692.2814	-6694.4151	-6694.4807	-6692.9598	-6692.4236	-6692.7409	-6692.4893	-6692.7847	-6692.8285	-6691.7562	-6691.2419	-6694.7105	-6727.3507	-6811.3639	-6857.3316	-6856.8283	-6856.5438	-6855.5371	-6854.2897	-6852.4624	-6852.8453	-6852.2545	-6851.5870	-6850.8648	-6850.7335	-6849.8910	-6848.8077	-6849.2454	-6847.3634	-6847.9652	-6847.6697	-6846.4442	-6844.8139	-6845.3391
-6902.1722	-6901.1327	-6898.9990	-6900.7169	-6899.6555	-6899.7540	-6898.7364	-6899.0099	-6898.0361	-6897.6094	-6897.0841	-6896.6793	-6895.6398	-6895.0051	-6893.7030	-6893.0465	-6893.0246	-6892.5760	-6892.4009	-6889.9171	-6799.2292	-6723.9040	-6723.6085	-6722.4158	-6722.4706	-6721.4201	-6721.6061	-6721.9235	-6721.7812	-6722.0876	-6721.5295	-6721.2450	-6721.2560	-6720.2931	-6718.7721	-6717.3825	-6717.4919	-6719.1442	-6718.4220	-6715.8725	-6712.3929	-6712.5133	-6713.6294	-6717.3934	-6717.3606	-6715.8068	-6715.6974	-6715.9928	-6713.3339	-6712.8634	-6714.3187	-6715.2269	-6729.9221	-6846.2692	-6881.6668	-6880.6491	-6879.8832	-6877.9027	-6878.2966	-6877.6401	-6876.6006	-6875.0468	-6875.2328	-6875.0359	-6873.9088	-6874.7842	-6873.5149	-6872.3113	-6871.6876	-6871.0639	-6869.3788	-6870.9873	-6869.6742	-6868.6129	-6867.9673	-6866.6542	-6866.4245	-6867.9454	-6867.9673	-6865.7898	-6865.5929	-6864.4221	-6863.3060	-6827.4269	-6755.5484	-6703.3219	-6696.2205	-6694.6339	-6695.8813	-6693.9336	-6680.3108	-6678.3849	-6680.0700	-6687.8717	-6693.7695	-6693.2771	-6692.5878	-6692.3033	-6691.7562	-6692.5221	-6691.4060	-6691.8328	-6691.4717	-6692.5002	-6693.4084	-6716.1351	-6821.9340	-6858.1741	-6856.3249	-6854.9572	-6853.3815	-6852.6265	-6852.0247	-6851.9153	-6851.9481	-6850.7992	-6849.9676	-6847.6916	-6847.5931	-6846.9694	-6847.0679	-6848.2387	-6847.0570	-6846.2692	-6845.4157	-6845.0108	-6843.3148	-6844.0917
-6900.7607	-6899.8634	-6900.5747	-6898.9005	-6899.2944	-6898.9552	-6897.8610	-6897.5328	-6896.4933	-6895.9024	-6894.9504	-6895.3115	-6893.9656	-6893.2106	-6893.3529	-6893.7468	-6892.1821	-6891.7006	-6891.3067	-6891.1207	-6837.1654	-6727.2851	-6722.5253	-6721.5624	-6720.8074	-6720.2274	-6722.1861	-6720.9496	-6720.1290	-6719.6803	-6720.3587	-6718.8268	-6717.6342	-6716.9120	-6718.1484	-6717.7436	-6717.4919	-6717.5138	-6717.6232	-6716.2117	-6711.2987	-6710.5546	-6710.7516	-6716.5071	-6715.3801	-6715.7849	-6714.7564	-6715.1612	-6714.6689	-6713.8263	-6712.5461	-6716.1789	-6737.6363	-6864.0938	-6881.6668	-6879.5331	-6878.5483	-6877.2680	-6877.8370	-6876.9836	-6876.4912	-6874.8170	-6875.1234	-6874.1933	-6873.9417	-6872.2566	-6872.0706	-6871.8627	-6871.7642	-6871.3374	-6869.6086	-6868.9740	-6868.9521	-6868.6019	-6867.0044	-6867.0919	-6866.0305	-6867.3108	-6865.3631	-6864.6409	-6863.3607	-6864.8816	-6863.9953	-6863.2184	-6831.4317	-6768.4820	-6715.3035	-6695.6625	-6692.8832	-6692.0735	-6690.2024	-6688.8237	-6691.3294	-6689.8304	-6690.3993	-6691.2419	-6692.1063	-6690.7933	-6690.5197	-6689.1410	-6688.4626	-6691.1981	-6691.1325	-6692.7081	-6721.9891	-6827.1205	-6856.3140	-6856.4562	-6853.5237	-6852.7250	-6852.6156	-6851.5214	-6850.7007	-6850.4271	-6850.2192	-6849.2782	-6848.8187	-6847.7354	-6847.0570	-6846.5427	-6846.9147	-6845.9300	-6846.0613	-6844.0041	-6845.0218	-6843.4899	-6842.8662	-6841.8595
-6900.2683	-6898.2112	-6897.7625	-6898.0470	-6898.3972	-6896.4057	-6896.0775	-6895.2130	-6896.6136	-6895.6617	-6894.0204	-6893.0246	-6893.4951	-6892.8714	-6891.9085	-6891.0003	-6891.2848	-6891.5693	-6888.7025	-6889.9390	-6861.0738	-6738.2381	-6721.4967	-6720.4791	-6721.1794	-6721.6171	-6719.7132	-6718.7940	-6719.1332	-6719.7897	-6719.9101	-6718.0390	-6715.0299	-6714.0014	-6718.5533	-6717.0323	-6715.9491	-6715.9381	-6717.2074	-6715.2926	-6711.4519	-6710.5218	-6710.5984	-6714.9643	-6711.5285	-6714.9862	-6714.3187	-6714.3734	-6714.0233	-6714.8658	-6714.2968	-6715.9163	-6778.9535	-6878.0230	-6878.6796	-6879.2814	-6876.0097	-6876.0097	-6875.2766	-6875.6049	-6874.3246	-6872.4754	-6873.4930	-6872.6067	-6873.3727	-6871.4250	-6871.0967	-6869.1271	-6869.4882	-6869.0396	-6867.8250	-6867.4202	-6868.5253	-6867.2451	-6866.3479	-6864.9363	-6865.2537	-6865.2755	-6863.6123	-6863.2403	-6863.4810	-6863.6342	-6862.5947	-6862.6385	-6861.5224	-6843.1178	-6798.9666	-6745.0988	-6694.8199	-6692.4017	-6691.0887	-6688.5611	-6689.3270	-6689.3489	-6690.0601	-6690.0273	-6690.3884	-6689.8741	-6690.2133	-6688.9988	-6689.8304	-6691.5811	-6693.7695	-6735.4588	-6811.1889	-6854.3991	-6853.9505	-6852.8344	-6852.6046	-6852.2982	-6850.9195	-6849.8691	-6848.5232	-6849.9676	-6848.3044	-6847.7135	-6847.4947	-6848.1074	-6845.4594	-6846.8600	-6846.0613	-6845.8643	-6843.9604	-6843.6759	-6842.9537	-6842.7568	-6842.6583	-6839.9775
-6899.0318	-6898.4410	-6897.4452	-6897.6750	-6895.9024	-6894.8410	-6895.7383	-6894.8957	-6895.1802	-6893.2435	-6892.6854	-6891.2630	-6891.6022	-6890.7487	-6890.8472	-6889.2058	-6888.9870	-6889.5779	-6889.3481	-6887.7177	-6884.2163	-6787.6744	-6721.1356	-6720.0195	-6718.9472	-6717.5029	-6717.5357	-6718.7065	-6717.9405	-6718.4767	-6711.7145	-6706.0903	-6702.9827	-6705.0617	-6714.4172	-6717.1855	-6716.1679	-6716.5181	-6715.6865	-6712.8525	-6711.3315	-6707.7754	-6675.7807	-6662.5518	-6668.5261	-6705.1930	-6715.1175	-6713.9795	-6713.5309	-6712.1631	-6713.0166	-6730.0206	-6849.9238	-6879.0516	-6877.6838	-6877.9574	-6874.6638	-6875.3204	-6873.1210	-6874.5763	-6873.0335	-6872.6943	-6871.9283	-6872.6724	-6870.9435	-6870.1995	-6870.4183	-6870.2323	-6869.0505	-6868.3174	-6867.7922	-6866.7527	-6868.7770	-6865.6476	-6865.9321	-6865.6585	-6865.2318	-6864.2907	-6863.1747	-6862.6166	-6862.8573	-6861.8616	-6862.0148	-6862.2665	-6862.7151	-6860.5923	-6858.6446	-6817.5243	-6783.9869	-6711.2549	-6702.8295	-6692.5002	-6690.9902	-6690.3775	-6689.3380	-6688.5830	-6686.8322	-6688.8127	-6689.3708	-6689.9398	-6692.4674	-6708.2349	-6729.1671	-6836.0383	-6852.1560	-6850.8867	-6850.0113	-6849.8363	-6850.5037	-6850.6241	-6849.5080	-6849.8582	-6849.1907	-6849.1032	-6848.3372	-6846.9147	-6846.7615	-6845.9847	-6844.0589	-6845.7002	-6844.9561	-6844.3762	-6842.4613	-6842.3300	-6841.9033	-6839.8899	-6839.2334	-6841.4765
-6897.1936	-6895.9462	-6895.8367	-6896.2416	-6894.6659	-6893.6046	-6891.9742	-6893.7796	-6892.1055	-6893.5608	-6893.0027	-6890.9456	-6890.3766	-6889.9061	-6890.9238	-6890.5955	-6889.5122	-6888.1554	-6887.5645	-6886.3937	-6885.9779	-6851.4776	-6736.2247	-6718.8487	-6718.0062	-6716.6165	-6716.1351	-6716.4962	-6716.8244	-6705.8167	-6698.5184	-6699.2952	-6698.7481	-6700.7943	-6700.8709	-6706.0793	-6713.6950	-6716.1898	-6713.6294	-6709.9528	-6707.6769	-6701.7572	-6686.5149	-6668.3073	-6664.3463	-6681.5363	-6706.1122	-6712.3273	-6710.8172	-6710.9814	-6715.6099	-6757.7259	-6877.3994	-6878.4498	-6876.2723	-6876.0206	-6875.8237	-6875.3532	-6874.6967	-6874.4778	-6873.4493	-6872.8803	-6870.7575	-6871.7642	-6869.5320	-6868.9630	-6869.0834	-6869.3569	-6866.9825	-6866.5229	-6867.0482	-6865.1552	-6864.0172	-6864.2798	-6864.2142	-6863.1090	-6863.3607	-6862.8026	-6861.9601	-6861.0957	-6860.3516	-6859.4215	-6860.6470	-6860.6908	-6859.7826	-6858.6665	-6860.0671	-6858.5571	-6843.0960	-6817.1304	-6781.6672	-6746.9589	-6718.1156	-6696.8661	-6696.4831	-6693.8899	-6694.3385	-6697.8509	-6705.7182	-6735.9402	-6752.2658	-6827.4050	-6852.6374	-6853.9505	-6851.5761	-6851.9371	-6850.6898	-6849.7706	-6849.1907	-6848.6545	-6848.0199	-6848.3263	-6847.6041	-6846.0722	-6845.5360	-6843.5008	-6843.9713	-6843.0631	-6841.9689	-6840.2620	-6840.7325	-6841.0060	-6841.8376	-6841.3890	-6840.9951	-6840.6887	-6839.5507	-6838.4237
-6896.5917	-6896.7559	-6894.6878	-6894.3158	-6894.0094	-6894.6878	-6892.7401	-6892.8058	-6892.5979	-6893.3529	-6890.2344	-6889.4794	-6887.8053	-6889.4903	-6889.3919	-6889.1949	-6887.7068	-6888.6259	-6887.7834	-6886.5469	-6885.7919	-6873.2414	-6810.4558	-6720.4353	-6718.1813	-6717.3059	-6717.5794	-6716.7588	-6716.0804	-6707.3267	-6697.8618	-6695.9251	-6696.7020	-6697.1287	-6701.6368	-6705.5213	-6713.6294	-6712.9072	-6713.2026	-6712.2288	-6710.1826	-6693.0801	-6672.6622	-6673.2969	-6674.8288	-6683.1119	-6705.0508	-6710.8829	-6710.6531	-6711.7801	-6728.7622	-6811.4405	-6877.3556	-6875.2328	-6875.3094	-6875.1234	-6874.1386	-6872.4864	-6872.9897	-6870.8450	-6871.1843	-6870.0682	-6870.2761	-6870.0463	-6869.2584	-6866.8731	-6867.7047	-6866.8950	-6865.4178	-6866.3260	-6865.4725	-6865.0348	-6863.5686	-6864.6081	-6863.6561	-6862.8573	-6862.0257	-6862.0476	-6859.5747	-6858.9620	-6858.0975	-6858.2617	-6859.3230	-6859.4544	-6859.0276	-6857.8021	-6857.9443	-6857.3535	-6857.2003	-6856.4672	-6856.5547	-6846.5318	-6811.0357	-6809.1099	-6802.5775	-6789.8847	-6779.7304	-6791.4165	-6831.7053	-6852.1560	-6850.7226	-6847.4728	-6850.0442	-6848.8953	-6847.4181	-6849.2563	-6847.5275	-6847.3962	-6847.1992	-6848.3263	-6846.9147	-6847.1992	-6845.6236	-6845.4813	-6844.5950	-6843.6540	-6842.7130	-6841.0717	-6840.6778	-6840.9623	-6840.4917	-6841.0717	-6840.1416	-6838.9161	-6839.1349	-6838.4456	-6838.4018	-6837.5374
-6894.6441	-6893.2435	-6894.6550	-6893.6593	-6892.5432	-6891.0660	-6892.3134	-6890.8690	-6890.9456	-6890.7377	-6889.3700	-6889.6654	-6889.5341	-6889.7092	-6889.0636	-6889.2168	-6887.1816	-6886.3609	-6886.9846	-6887.5317	-6886.2077	-6884.8400	-6859.1151	-6782.8051	-6713.1698	-6714.4391	-6715.2926	-6715.2816	-6715.2269	-6712.3491	-6701.6478	-6698.8576	-6698.5512	-6697.0849	-6696.8333	-6699.1421	-6712.6555	-6712.8634	-6713.2792	-6712.6993	-6711.9005	-6711.8349	-6689.2504	-6679.2603	-6679.7089	-6695.2139	-6709.3401	-6710.3249	-6711.2002	-6715.2160	-6771.3050	-6873.6025	-6876.4912	-6874.8608	-6873.1648	-6872.8693	-6872.8584	-6871.4469	-6870.6153	-6870.2104	-6869.8056	-6868.5582	-6867.9563	-6866.7855	-6866.7418	-6865.7898	-6866.4682	-6864.2689	-6864.9692	-6863.9953	-6863.1965	-6862.7698	-6861.8726	-6861.3802	-6863.1199	-6861.4130	-6860.3735	-6858.6228	-6858.1960	-6859.7060	-6858.2070	-6859.0276	-6857.8240	-6857.8678	-6857.9115	-6858.3383	-6856.8939	-6855.7122	-6854.1803	-6854.8477	-6853.8192	-6853.4690	-6854.3991	-6853.3487	-6852.3311	-6850.2521	-6850.6241	-6850.1536	-6851.2587	-6849.5955	-6848.9500	-6848.3153	-6849.5299	-6848.3591	-6848.1293	-6848.1840	-6847.8229	-6847.5384	-6845.8424	-6844.7263	-6842.6802	-6843.6212	-6843.3039	-6843.2054	-6842.0127	-6842.8224	-6841.5641	-6841.5641	-6841.1920	-6841.4437	-6840.5027	-6840.0978	-6841.2249	-6839.5288	-6839.3319	-6837.3951	-6838.6206	-6837.0559
-6893.4185	-6892.5322	-6892.2368	-6892.7401	-6892.0617	-6889.9390	-6889.8843	-6890.2453	-6890.3219	-6889.1402	-6889.4685	-6889.1730	-6888.2429	-6886.7876	-6885.1463	-6885.5731	-6884.9166	-6885.1463	-6884.3257	-6885.4965	-6884.5226	-6884.1616	-6878.0340	-6846.4989	-6731.7494	-6713.8154	-6712.9510	-6714.7126	-6713.3449	-6709.7668	-6702.0855	-6696.8770	-6697.5117	-6694.0978	-6692.0188	-6697.0521	-6706.9985	-6711.9552	-6711.5722	-6711.0033	-6710.6641	-6708.1474	-6707.6222	-6706.8781	-6701.7353	-6707.2392	-6709.4057	-6709.4714	-6710.3249	-6738.7852	-6853.6988	-6874.7295	-6872.8803	-6873.3836	-6871.7532	-6871.9830	-6869.2584	-6869.6414	-6870.8779	-6870.5715	-6867.0044	-6867.7375	-6866.1400	-6866.9716	-6866.0196	-6865.1442	-6865.8117	-6864.7284	-6863.4592	-6863.6123	-6863.8093	-6862.4634	-6862.1242	-6861.0628	-6861.1832	-6860.5267	-6860.7565	-6860.4173	-6859.9905	-6857.9881	-6858.8416	-6858.5571	-6858.3054	-6858.1304	-6856.0842	-6856.1498	-6854.1474	-6855.3182	-6854.7711	-6855.3292	-6851.9700	-6849.9566	-6851.2587	-6852.1888	-6850.6569	-6850.0332	-6850.1426	-6848.8624	-6849.0156	-6848.5560	-6846.9476	-6846.6521	-6847.0898	-6843.8947	-6845.4047	-6843.5665	-6844.9561	-6843.9276	-6843.3039	-6842.9537	-6842.9209	-6842.6802	-6842.7020	-6842.3410	-6841.1483	-6839.7258	-6838.1720	-6840.0650	-6837.9094	-6838.4346	-6837.0231	-6835.4474	-6836.0711	-6838.5003	-6837.6687	-6836.2462	-6832.2852	-6834.8894
-6892.3462	-6891.8757	-6891.1426	-6890.6611	-6888.7463	-6890.3548	-6889.7201	-6888.5603	-6888.8885	-6888.5712	-6886.9955	-6887.2144	-6887.8490	-6885.8904	-6886.5469	-6884.3038	-6884.4789	-6883.1111	-6884.5664	-6883.5379	-6883.6582	-6882.4765	-6881.5792	-6875.0249	-6807.3810	-6735.2181	-6713.7169	-6711.1783	-6711.2330	-6710.3358	-6708.6069	-6697.1506	-6696.3409	-6696.7895	-6695.9470	-6700.4879	-6707.2611	-6709.2416	-6709.2525	-6707.6112	-6707.5893	-6708.0380	-6707.4471	-6705.4447	-6706.5608	-6707.1298	-6708.5194	-6710.1607	-6730.5786	-6777.4982	-6868.7113	-6873.8979	-6873.3727	-6872.5958	-6871.0639	-6869.6414	-6869.9587	-6868.4159	-6868.0111	-6868.6895	-6866.7637	-6866.2056	-6865.8555	-6865.9758	-6865.6038	-6865.7460	-6864.2470	-6863.2075	-6861.9710	-6862.3431	-6862.1133	-6862.5400	-6862.2665	-6860.8331	-6860.4720	-6859.3668	-6858.1194	-6856.8611	-6857.4957	-6857.1456	-6857.1127	-6855.9638	-6856.3140	-6855.5371	-6855.3511	-6853.3159	-6853.5566	-6853.5785	-6852.9876	-6853.3049	-6852.7797	-6851.7074	-6849.6393	-6850.7007	-6849.4752	-6849.7159	-6848.0418	-6848.4904	-6847.2211	-6846.1816	-6844.9014	-6845.8971	-6846.6631	-6846.2692	-6845.9847	-6845.4813	-6845.6017	-6844.1245	-6843.9713	-6842.2753	-6841.3999	-6840.8747	-6840.9951	-6840.3714	-6840.0431	-6837.8328	-6839.7258	-6838.9051	-6838.9817	-6837.9532	-6836.7386	-6836.0711	-6833.8937	-6833.4232	-6834.3642	-6835.6663	-6834.8237	-6834.9879
-6891.4490	-6889.3919	-6889.7529	-6890.7487	-6889.4575	-6889.8733	-6889.4137	-6889.0964	-6887.8162	-6887.2144	-6886.3718	-6887.4879	-6886.1202	-6885.7482	-6884.3695	-6883.9865	-6884.8290	-6884.6868	-6882.1482	-6881.4370	-6882.1482	-6880.7257	-6881.1634	-6880.1786	-6875.8456	-6808.7378	-6740.3280	-6713.0057	-6710.3030	-6709.9309	-6711.3753	-6711.1565	-6699.7548	-6698.7810	-6702.5888	-6708.2130	-6708.6069	-6708.7601	-6707.6550	-6707.0094	-6705.7511	-6705.5651	-6705.1711	-6706.2435	-6707.4143	-6706.6264	-6707.3705	-6730.8084	-6780.8356	-6867.3545	-6873.7447	-6871.9064	-6871.4578	-6870.0463	-6869.7727	-6868.2737	-6868.4159	-6866.4354	-6867.0153	-6865.8226	-6865.5272	-6865.3302	-6865.6585	-6865.3302	-6864.1594	-6862.3321	-6860.7455	-6860.9206	-6861.5662	-6860.8878	-6859.7388	-6860.1109	-6858.2070	-6859.5638	-6858.3492	-6857.4301	-6856.8830	-6857.5176	-6855.9419	-6854.1803	-6854.0818	-6855.7669	-6855.5699	-6855.0994	-6854.7383	-6852.8672	-6852.3311	-6851.2040	-6852.3420	-6851.4776	-6851.2806	-6850.3834	-6849.8691	-6848.9609	-6849.8691	-6849.2345	-6847.3305	-6847.0679	-6845.7768	-6846.0284	-6844.7154	-6844.3434	-6842.8662	-6843.2054	-6842.6583	-6843.2820	-6843.3695	-6843.3257	-6842.1768	-6842.6145	-6841.5859	-6840.0759	-6840.0431	-6838.8285	-6839.4304	-6837.8875	-6838.6206	-6838.4018	-6838.4675	-6836.8918	-6837.2638	-6836.4869	-6836.0493	-6834.2657	-6834.1235	-6834.1563	-6833.1934	-6832.2414
-6890.0156	-6889.6107	-6889.3262	-6887.8928	-6888.0460	-6888.0350	-6887.8928	-6887.2253	-6885.0150	-6886.6016	-6884.9166	-6885.2120	-6885.4199	-6885.1354	-6884.0412	-6884.5008	-6883.0673	-6883.9755	-6881.0868	-6880.9665	-6880.4194	-6881.2838	-6880.4194	-6878.9860	-6877.1586	-6874.4012	-6828.0397	-6751.2263	-6713.6731	-6709.3072	-6707.8848	-6707.4033	-6707.8629	-6707.0532	-6707.2611	-6707.5018	-6708.1036	-6707.5346	-6706.7577	-6706.8890	-6706.9875	-6705.7182	-6702.9718	-6703.5079	-6703.5627	-6705.9261	-6720.3040	-6795.2572	-6861.7412	-6873.1210	-6870.8779	-6870.7247	-6869.6305	-6869.1381	-6866.9168	-6865.7460	-6866.5776	-6865.8664	-6865.3959	-6865.3740	-6865.9539	-6863.3060	-6863.9953	-6863.9515	-6861.9710	-6861.1941	-6860.4391	-6860.3735	-6860.2969	-6859.5419	-6858.7212	-6857.2550	-6856.2812	-6858.1194	-6856.4781	-6855.8325	-6854.4976	-6855.3620	-6855.0009	-6855.1432	-6854.0709	-6854.1037	-6851.5432	-6851.2369	-6852.7797	-6852.4077	-6851.0618	-6850.5803	-6850.4600	-6850.2849	-6849.7925	-6849.3767	-6849.2563	-6848.5779	-6848.9171	-6847.5166	-6846.1269	-6844.4965	-6844.4747	-6843.6649	-6844.5184	-6844.3652	-6843.0631	-6843.2054	-6842.2862	-6842.3957	-6841.1592	-6841.3124	-6840.4808	-6840.5246	-6839.2553	-6837.8656	-6837.2857	-6837.4608	-6837.5921	-6837.3733	-6836.7605	-6836.8371	-6836.4541	-6835.7101	-6835.0535	-6832.9527	-6834.0687	-6834.4298	-6834.8785	-6831.9569	-6831.1800	-6831.2895
-6889.6545	-6888.9651	-6888.0679	-6886.8642	-6886.3171	-6885.5293	-6885.8029	-6885.6278	-6885.1682	-6883.5379	-6885.1135	-6883.2862	-6882.9579	-6883.5269	-6882.9251	-6881.3604	-6880.5069	-6880.8680	-6880.1677	-6881.3494	-6879.7191	-6880.9993	-6879.9489	-6878.1544	-6876.9507	-6877.1258	-6874.9702	-6849.4205	-6795.6074	-6727.2851	-6715.4129	-6706.6921	-6704.8648	-6704.3614	-6706.6264	-6705.9590	-6706.2653	-6705.8058	-6705.7511	-6704.3724	-6704.9523	-6703.1140	-6703.4970	-6705.2806	-6706.3091	-6721.1356	-6794.9727	-6860.9425	-6867.3655	-6869.0287	-6867.5515	-6868.3721	-6866.8074	-6867.0810	-6865.1989	-6864.6737	-6864.9801	-6864.5315	-6863.8859	-6864.2251	-6863.2403	-6862.2883	-6862.1023	-6861.6756	-6862.0367	-6860.5048	-6860.7893	-6859.4981	-6859.6185	-6857.8568	-6858.7431	-6857.7583	-6857.7912	-6856.8939	-6856.8939	-6855.8106	-6855.4605	-6854.4867	-6854.1365	-6855.0666	-6853.7535	-6853.1955	-6852.7250	-6852.9438	-6851.6089	-6851.4119	-6849.9785	-6850.0989	-6850.2958	-6850.0770	-6849.0922	-6848.5889	-6848.6436	-6847.6916	-6846.4989	-6845.4266	-6846.2473	-6845.9190	-6844.8686	-6843.9057	-6845.1202	-6843.7853	-6842.5707	-6841.9361	-6841.3233	-6840.0322	-6840.7981	-6839.5179	-6840.4699	-6839.7586	-6839.3757	-6838.0298	-6837.5593	-6837.1654	-6833.5654	-6833.7077	-6834.4955	-6835.5350	-6834.8019	-6834.5611	-6832.2852	-6833.0949	-6832.9198	-6832.9527	-6832.2961	-6831.8475	-6830.9503	-6830.3594
-6886.9627	-6887.6521	-6886.5907	-6887.1378	-6886.6563	-6884.9713	-6884.4242	-6884.0302	-6883.5816	-6881.5464	-6882.7391	-6882.2795	-6881.3494	-6880.9008	-6882.7063	-6881.3494	-6880.4084	-6880.1677	-6880.0802	-6877.5088	-6877.4322	-6878.6249	-6878.5483	-6878.8656	-6877.6510	-6876.7428	-6875.3422	-6875.2109	-6862.0476	-6814.7998	-6766.5999	-6716.4196	-6709.7121	-6705.1055	-6704.1645	-6704.2629	-6704.4271	-6703.4751	-6704.1535	-6704.2082	-6704.7772	-6704.5803	-6706.8890	-6716.3758	-6734.3318	-6830.1734	-6868.3831	-6867.8797	-6868.5691	-6865.9758	-6865.4506	-6867.5624	-6866.3479	-6864.5315	-6864.4111	-6865.0020	-6863.7546	-6863.6561	-6862.7151	-6861.5771	-6857.9991	-6860.4720	-6859.6404	-6860.2312	-6860.1109	-6859.9577	-6857.9115	-6857.4629	-6858.4367	-6858.0319	-6857.2003	-6856.2155	-6856.1170	-6855.2854	-6855.1432	-6854.0599	-6854.9134	-6853.1955	-6852.6156	-6851.7402	-6852.2435	-6852.4405	-6850.8429	-6849.7487	-6849.1469	-6850.3943	-6850.3396	-6849.6503	-6848.2387	-6848.4685	-6848.1403	-6847.3634	-6845.9409	-6846.2363	-6844.3105	-6844.8686	-6843.9823	-6844.3981	-6844.6388	-6843.6868	-6841.5969	-6841.1702	-6841.0279	-6839.4960	-6838.1830	-6836.8261	-6839.7149	-6838.9927	-6838.9051	-6837.7891	-6837.3404	-6835.8742	-6836.4322	-6835.7429	-6834.8019	-6834.7034	-6833.8171	-6833.3903	-6833.0511	-6833.2371	-6833.2481	-6833.6858	-6831.7819	-6831.2457	-6829.8123	-6829.3855	-6829.3308	-6829.8451
-6885.9013	-6885.9451	-6883.6473	-6884.0521	-6884.9384	-6883.3300	-6882.7391	-6882.5859	-6881.7871	-6882.2357	-6881.2510	-6880.3865	-6881.0102	-6880.7039	-6880.6491	-6878.3294	-6877.6620	-6877.5854	-6879.3580	-6877.7386	-6877.2790	-6877.2680	-6876.8522	-6876.3270	-6875.9003	-6874.8717	-6874.7404	-6874.3575	-6873.0006	-6873.3617	-6863.5248	-6817.8526	-6778.1329	-6765.8996	-6733.9926	-6709.7778	-6706.3857	-6707.8301	-6706.6483	-6708.3662	-6715.5223	-6720.4791	-6754.6512	-6798.5180	-6868.9192	-6867.2013	-6866.0305	-6864.4330	-6865.7242	-6865.4616	-6863.9187	-6863.0543	-6862.7589	-6862.8026	-6863.0762	-6860.9972	-6859.0386	-6859.1917	-6859.8811	-6860.1546	-6858.2945	-6859.5528	-6858.9182	-6858.9620	-6857.8459	-6858.5243	-6856.7626	-6855.9857	-6855.2635	-6856.5219	-6855.4933	-6855.0885	-6855.4167	-6854.3663	-6853.0095	-6853.3377	-6852.7250	-6850.2411	-6852.0903	-6849.6940	-6850.6460	-6849.4642	-6849.0156	-6847.7573	-6849.0922	-6848.0418	-6846.2910	-6846.1816	-6847.8448	-6846.8053	-6846.3458	-6845.5251	-6844.3762	-6844.7591	-6843.4570	-6842.8552	-6842.9318	-6843.9713	-6842.2753	-6842.7896	-6842.0455	-6842.5926	-6840.7434	-6839.2553	-6837.6906	-6837.7015	-6837.5921	-6837.6030	-6837.1763	-6836.5635	-6837.0997	-6834.7253	-6834.7034	-6833.3137	-6834.4955	-6834.4408	-6833.2481	-6831.9022	-6832.5806	-6831.0925	-6830.3156	-6829.9326	-6829.1010	-6829.9545	-6828.2804	-6828.8494	-6827.7880	-6827.9631
-6885.1026	-6883.8552	-6882.9798	-6882.3561	-6882.9579	-6882.9907	-6880.6929	-6881.0321	-6880.8570	-6879.6096	-6878.8437	-6879.7738	-6878.4607	-6879.4674	-6878.8109	-6876.6115	-6876.9179	-6876.5459	-6877.0820	-6874.5216	-6874.7404	-6874.0511	-6875.5064	-6874.0183	-6874.5216	-6873.5915	-6873.1319	-6871.0311	-6871.4797	-6870.9216	-6872.1909	-6870.5824	-6867.9892	-6832.8870	-6818.3340	-6815.3031	-6815.6970	-6780.2447	-6820.4787	-6802.4133	-6832.1758	-6856.8830	-6864.8926	-6866.4463	-6865.6038	-6864.2251	-6863.8093	-6863.2841	-6863.3169	-6863.6452	-6863.3826	-6862.0148	-6860.5486	-6859.5528	-6859.7826	-6859.4762	-6859.9030	-6858.2836	-6859.2465	-6857.1893	-6856.7845	-6856.8830	-6857.7364	-6857.1565	-6855.5261	-6855.0775	-6854.2350	-6854.0161	-6854.2569	-6854.2459	-6854.5304	-6854.1365	-6852.7250	-6852.8344	-6852.3420	-6852.2545	-6851.0946	-6850.3396	-6850.3615	-6848.3263	-6847.4618	-6847.2977	-6848.0089	-6847.6150	-6847.2758	-6846.3020	-6845.9081	-6843.8072	-6842.9865	-6841.5641	-6842.0127	-6842.5051	-6843.3257	-6841.8704	-6841.1373	-6841.7501	-6839.6820	-6838.6206	-6838.7520	-6839.0036	-6839.0146	-6839.7477	-6839.1896	-6838.2048	-6837.4280	-6836.9575	-6834.6815	-6835.4037	-6836.2024	-6836.0602	-6834.4298	-6831.0816	-6833.3575	-6833.1715	-6832.5040	-6831.2019	-6830.8955	-6830.7205	-6831.8147	-6829.8779	-6828.5102	-6827.4379	-6827.2847	-6827.8208	-6827.0439	-6826.0373	-6826.4968	-6824.7242
-6884.3366	-6882.6953	-6883.0673	-6881.7215	-6881.9950	-6880.4741	-6879.7628	-6880.1896	-6879.5659	-6879.6206	-6876.9507	-6876.7975	-6877.6620	-6875.9769	-6875.4517	-6876.7757	-6875.0140	-6874.0183	-6874.3684	-6875.3094	-6874.3027	-6873.2195	-6872.0487	-6873.5915	-6873.1757	-6872.2019	-6872.4426	-6871.4359	-6869.0505	-6865.8883	-6869.3132	-6869.7946	-6869.4882	-6868.5144	-6867.8250	-6867.6828	-6867.7047	-6866.7308	-6865.8664	-6865.5600	-6863.9297	-6864.3126	-6864.3455	-6865.5710	-6863.6342	-6863.9187	-6862.9886	-6862.2008	-6861.5224	-6861.2379	-6859.1699	-6859.2246	-6857.5723	-6858.6228	-6858.1960	-6857.9881	-6857.3754	-6856.5328	-6855.6137	-6854.8259	-6857.0909	-6855.9748	-6856.1717	-6855.5261	-6855.2417	-6853.8192	-6853.6113	-6852.5608	-6850.6569	-6849.4533	-6849.6612	-6850.9633	-6851.0399	-6851.0071	-6850.1864	-6850.1208	-6848.2934	-6848.5232	-6847.3524	-6847.5713	-6845.1202	-6847.4618	-6846.8272	-6845.8534	-6844.7920	-6844.5841	-6844.6716	-6843.2382	-6843.6540	-6842.6145	-6841.5750	-6839.8790	-6841.0170	-6841.5641	-6841.5531	-6840.1525	-6840.0322	-6839.1568	-6838.6863	-6838.0188	-6836.9137	-6837.7672	-6835.8742	-6835.4146	-6835.7319	-6834.5830	-6834.2001	-6834.2001	-6833.0511	-6831.6834	-6830.4907	-6830.7314	-6831.2457	-6831.7162	-6830.6329	-6830.5673	-6829.9108	-6830.1624	-6829.6700	-6829.0135	-6829.2433	-6827.8208	-6827.9959	-6826.2780	-6826.9017	-6826.6172	-6827.0658	-6825.6105
-6880.9227	-6879.9379	-6879.5987	-6878.3404	-6879.4127	-6880.3647	-6880.2333	-6876.5240	-6878.0012	-6877.6838	-6876.4146	-6875.7580	-6876.5130	-6876.2614	-6876.5787	-6875.8675	-6874.7733	-6876.0206	-6875.0577	-6875.3860	-6873.1538	-6872.6395	-6871.6985	-6871.5672	-6870.7356	-6871.4031	-6870.1995	-6869.4663	-6868.2190	-6867.8688	-6866.8512	-6866.4135	-6866.6761	-6864.9910	-6864.7613	-6864.4221	-6865.4287	-6865.2099	-6863.9297	-6862.5072	-6863.4592	-6862.2118	-6863.3278	-6861.4349	-6860.9972	-6860.3844	-6860.4938	-6861.2379	-6860.7565	-6859.1808	-6859.2246	-6861.3583	-6859.8373	-6859.6404	-6858.4696	-6857.7802	-6855.7012	-6856.7407	-6856.4562	-6855.6903	-6855.4058	-6855.5261	-6854.1803	-6853.1408	-6854.1037	-6852.9438	-6851.7949	-6851.8496	-6850.1755	-6848.8953	-6850.5913	-6846.1050	-6846.6850	-6848.4247	-6848.6108	-6847.8558	-6847.0898	-6847.0789	-6846.6302	-6846.7506	-6845.4047	-6846.6850	-6845.0765	-6844.2996	-6843.7744	-6844.2449	-6843.0084	-6844.1683	-6843.3804	-6842.8333	-6841.2686	-6839.8790	-6840.3276	-6840.0978	-6840.3604	-6838.7738	-6839.1349	-6837.9751	-6837.2967	-6834.6487	-6835.6116	-6834.7143	-6833.8171	-6833.8827	-6834.0250	-6833.6420	-6832.7885	-6833.1387	-6830.7533	-6829.8998	-6829.4184	-6829.9874	-6830.0858	-6830.0530	-6828.5649	-6829.3199	-6828.4883	-6827.9631	-6826.7157	-6826.6391	-6827.3722	-6827.9631	-6826.5406	-6826.2233	-6824.7899	-6823.7285	-6824.9321	-6824.7133
-6880.8570	-6878.8984	-6878.1434	-6878.7015	-6878.8218	-6876.8632	-6877.3994	-6876.3927	-6875.7362	-6875.7143	-6876.0316	-6874.6529	-6874.6967	-6873.4493	-6874.8936	-6873.6462	-6871.6766	-6873.2195	-6873.0882	-6872.4207	-6872.4754	-6872.3988	-6871.4906	-6872.0159	-6870.1885	-6869.4992	-6868.2737	-6867.8141	-6866.9168	-6868.5910	-6867.3874	-6866.5120	-6866.2275	-6866.1400	-6863.2184	-6864.2689	-6865.2646	-6863.0762	-6863.4810	-6861.9820	-6862.0914	-6862.1352	-6861.6318	-6861.5443	-6861.7960	-6860.1765	-6861.6318	-6859.4325	-6858.9291	-6858.3930	-6858.9510	-6857.7583	-6858.6993	-6857.9991	-6855.2526	-6855.6137	-6855.1760	-6855.4386	-6853.7645	-6854.7383	-6852.9329	-6853.1517	-6852.9876	-6851.8168	-6850.7116	-6851.3682	-6851.8715	-6851.8824	-6851.5432	-6850.3068	-6849.7706	-6850.0223	-6848.9828	-6847.6041	-6847.6041	-6846.7068	-6847.7792	-6846.3567	-6845.3391	-6844.5075	-6844.9342	-6845.1421	-6842.3628	-6842.8443	-6842.2753	-6841.7829	-6840.6887	-6842.0346	-6840.8966	-6841.1811	-6840.2291	-6840.1525	-6838.6754	-6837.5921	-6836.8043	-6836.5307	-6836.5854	-6837.0231	-6837.1872	-6836.7496	-6836.1149	-6835.5131	-6835.6882	-6834.5064	-6835.0098	-6832.9308	-6833.6311	-6829.1667	-6828.8275	-6829.9874	-6831.1691	-6829.9655	-6829.5825	-6828.4555	-6828.3023	-6828.8056	-6827.4707	-6826.2233	-6824.9540	-6826.2780	-6823.5425	-6823.9473	-6823.1923	-6823.3346	-6822.6015	-6823.5315	-6822.8422	-6822.6999
-6879.9489	-6879.4346	-6878.6249	-6877.7823	-6877.1586	-6877.3228	-6876.4146	-6876.3380	-6875.7143	-6875.3094	-6874.6967	-6874.1277	-6874.5654	-6872.7380	-6871.8736	-6872.6505	-6873.3946	-6871.7204	-6871.3922	-6869.7618	-6869.9150	-6868.6019	-6869.8165	-6867.8032	-6868.0220	-6868.0767	-6867.2232	-6868.0220	-6866.5776	-6864.9254	-6865.1005	-6866.6542	-6865.6038	-6864.3017	-6862.5400	-6862.2883	-6861.5881	-6862.0695	-6860.1109	-6858.7869	-6861.3254	-6859.7498	-6859.6841	-6860.3844	-6859.3449	-6857.9006	-6857.7255	-6857.1237	-6857.4957	-6855.9857	-6856.8939	-6856.1936	-6856.4672	-6855.4386	-6852.9657	-6854.4210	-6854.8259	-6853.2502	-6852.4843	-6852.8125	-6852.6812	-6852.1013	-6850.6679	-6850.9305	-6850.5366	-6850.8539	-6849.5846	-6848.8515	-6847.2211	-6848.1512	-6847.1883	-6847.4837	-6845.4485	-6846.6631	-6845.6564	-6844.5513	-6846.3458	-6844.7263	-6846.5974	-6845.1749	-6843.1616	-6842.4723	-6844.0917	-6843.2929	-6842.9975	-6842.0674	-6840.6230	-6838.2158	-6838.7301	-6837.8438	-6837.4827	-6836.0711	-6837.8000	-6838.8067	-6836.6182	-6836.7058	-6834.0906	-6833.6092	-6833.7952	-6834.4408	-6834.2766	-6834.6487	-6832.9527	-6831.7053	-6830.7424	-6831.2238	-6830.3922	-6830.0421	-6830.5345	-6829.4621	-6828.8166	-6828.4117	-6827.7005	-6826.9455	-6826.9673	-6825.9716	-6826.8360	-6825.8731	-6825.0634	-6824.1990	-6824.7352	-6823.4221	-6822.0762	-6822.3279	-6821.7917	-6821.8027	-6820.3693	-6820.5662
-6879.0297	-6878.3075	-6878.1544	-6877.0930	-6876.0097	-6876.3380	-6876.6006	-6877.0054	-6873.8869	-6874.3465	-6874.0948	-6873.8651	-6873.5477	-6872.2785	-6870.0135	-6870.7903	-6869.2913	-6871.0201	-6871.6001	-6870.1119	-6869.4335	-6867.5624	-6868.1642	-6867.7047	-6866.6105	-6867.1138	-6867.6281	-6864.9254	-6864.6190	-6864.7613	-6865.7460	-6864.4768	-6864.4330	-6863.8749	-6863.0652	-6863.3716	-6861.6318	-6861.1723	-6859.7936	-6859.5309	-6858.0538	-6858.5790	-6858.6993	-6858.6665	-6856.9814	-6856.9158	-6856.3577	-6855.9967	-6855.5371	-6854.6727	-6854.3006	-6853.8082	-6853.7207	-6853.0970	-6853.3706	-6851.0180	-6851.7840	-6850.1974	-6851.0508	-6850.3287	-6850.5584	-6851.1384	-6850.6679	-6849.7597	-6849.0156	-6849.0047	-6848.8296	-6847.9214	-6846.8929	-6847.9324	-6846.2910	-6846.9147	-6845.7111	-6843.4789	-6842.3081	-6843.7853	-6843.0194	-6842.8881	-6842.2644	-6843.1288	-6841.7063	-6841.3562	-6842.0565	-6841.4328	-6841.1264	-6840.7762	-6840.6230	-6839.2991	-6838.2705	-6837.6140	-6837.6796	-6836.1696	-6836.5745	-6836.3666	-6836.5526	-6836.3885	-6836.4869	-6834.3532	-6832.8213	-6833.7186	-6832.8761	-6832.0554	-6830.5892	-6830.1296	-6830.3047	-6830.6658	-6829.1886	-6829.7357	-6828.5977	-6828.4555	-6828.5977	-6828.7400	-6827.8755	-6827.0439	-6827.3394	-6826.1905	-6825.0197	-6823.5096	-6821.9996	-6822.0872	-6824.4835	-6823.9364	-6822.3498	-6820.7085	-6820.3474	-6819.3517	-6819.2751	-6819.6690
-6876.8304	-6875.7909	-6877.0164	-6876.3708	-6876.0972	-6875.8128	-6875.4298	-6874.8936	-6874.3356	-6874.9921	-6871.8627	-6872.3003	-6873.2742	-6873.2304	-6870.9982	-6871.5125	-6869.1162	-6870.9545	-6870.4402	-6870.7137	-6869.1053	-6868.2955	-6867.0372	-6866.1400	-6865.5710	-6866.5120	-6864.6956	-6864.3345	-6864.8707	-6863.5248	-6864.3455	-6862.3540	-6860.6361	-6861.7084	-6861.5443	-6861.1285	-6861.2926	-6859.3996	-6859.0604	-6857.7255	-6858.6884	-6859.4106	-6858.0100	-6858.0975	-6857.9225	-6857.5504	-6856.3030	-6857.7802	-6856.2593	-6855.7669	-6854.8477	-6855.2088	-6853.4909	-6852.5718	-6852.4186	-6853.4034	-6852.1888	-6850.1426	-6851.1384	-6850.0113	-6850.3287	-6848.5779	-6848.6764	-6847.1664	-6846.1269	-6846.2910	-6847.4618	-6844.8248	-6844.9342	-6845.9190	-6845.6345	-6845.3391	-6843.7087	-6843.1397	-6842.5051	-6843.2491	-6841.6078	-6842.9428	-6842.1221	-6841.9580	-6841.2686	-6842.3300	-6841.5203	-6842.0565	-6838.9051	-6840.5793	-6840.3386	-6837.6687	-6837.1325	-6836.6182	-6837.0450	-6835.0207	-6836.4103	-6835.8742	-6836.7277	-6834.0359	-6833.9812	-6832.9527	-6832.7776	-6832.3290	-6831.9460	-6830.3594	-6830.4579	-6830.0639	-6829.6153	-6829.2871	-6827.6786	-6828.3679	-6827.5910	-6826.6172	-6825.8294	-6827.1752	-6826.6610	-6825.6215	-6824.5929	-6825.5558	-6824.4725	-6823.5315	-6823.7613	-6823.3127	-6822.1419	-6822.0544	-6822.2075	-6820.4896	-6820.4240	-6818.9468	-6818.3669	-6818.5748
-6875.6049	-6875.5720	-6874.6310	-6873.6572	-6873.0663	-6872.0815	-6872.1581	-6872.6286	-6873.2523	-6872.6614	-6872.6614	-6872.4645	-6871.6219	-6870.7247	-6869.8603	-6870.5715	-6868.6895	-6868.4378	-6867.7594	-6868.8864	-6866.3150	-6866.9606	-6867.2889	-6866.6324	-6864.4111	-6865.5381	-6865.4178	-6865.1880	-6864.0172	-6862.1352	-6860.7783	-6861.1832	-6860.8440	-6859.3340	-6860.7783	-6860.3954	-6860.5923	-6859.5419	-6857.9334	-6856.4343	-6856.4672	-6855.4277	-6856.2702	-6856.5000	-6857.5176	-6856.1389	-6855.2964	-6855.0447	-6853.2174	-6854.3335	-6853.4472	-6852.6812	-6850.7116	-6852.2545	-6851.1493	-6850.9852	-6848.9609	-6850.5803	-6849.1141	-6848.5998	-6849.7706	-6848.8296	-6847.1555	-6847.2321	-6847.8448	-6845.7768	-6845.4704	-6844.7701	-6843.9823	-6844.6060	-6845.3391	-6844.1573	-6844.0260	-6842.8771	-6842.9865	-6842.8115	-6840.7325	-6840.0650	-6841.6735	-6839.1787	-6838.1501	-6838.5988	-6837.4608	-6839.8680	-6838.6316	-6837.6687	-6837.8219	-6837.6249	-6836.7824	-6835.7976	-6834.4298	-6835.5788	-6833.2809	-6833.6201	-6833.7843	-6833.7843	-6833.9265	-6832.6791	-6832.0445	-6831.6177	-6831.9350	-6831.0706	-6831.7162	-6830.1296	-6829.4950	-6828.1710	-6826.4531	-6827.1205	-6827.1096	-6827.0768	-6825.0853	-6824.7023	-6824.6367	-6825.0962	-6824.2865	-6824.8227	-6823.3346	-6823.1923	-6820.2270	-6820.7304	-6822.0981	-6820.7632	-6820.2270	-6820.2270	-6818.6951	-6818.7717	-6818.2575	-6815.4453
-6873.7447	-6873.6134	-6873.6134	-6874.4340	-6872.5411	-6872.0815	-6871.7314	-6871.7423	-6871.3484	-6872.0924	-6870.8560	-6869.0505	-6870.2542	-6869.6086	-6869.7399	-6869.1271	-6868.3721	-6868.0001	-6867.2013	-6865.1223	-6866.5995	-6865.7351	-6865.5710	-6865.5163	-6863.1747	-6864.4111	-6864.4658	-6862.6823	-6861.7960	-6863.8968	-6860.7127	-6860.2422	-6859.3230	-6859.9905	-6860.1109	-6859.6841	-6859.0386	-6858.2726	-6858.1741	-6857.0580	-6857.8349	-6856.1170	-6855.7012	-6854.0927	-6856.0295	-6854.9900	-6854.1474	-6854.4648	-6853.9395	-6850.3724	-6851.6527	-6851.7621	-6851.9481	-6851.4776	-6849.0703	-6849.4971	-6847.9652	-6847.9433	-6846.9038	-6847.9214	-6845.7221	-6846.7287	-6846.2473	-6846.9038	-6846.4114	-6846.2910	-6844.8357	-6844.7482	-6844.6060	-6844.3652	-6843.4789	-6838.5988	-6836.4432	-6838.0954	-6841.1811	-6840.8309	-6841.6625	-6840.0541	-6841.1264	-6839.9337	-6839.6054	-6838.1939	-6838.9708	-6838.0626	-6837.8656	-6837.1872	-6836.1259	-6835.9727	-6835.1301	-6834.9988	-6833.4122	-6834.6268	-6833.1715	-6833.2590	-6832.3618	-6831.7928	-6830.7314	-6831.4208	-6830.1077	-6830.2390	-6830.7861	-6829.4402	-6827.8536	-6829.0026	-6829.0354	-6827.5692	-6826.2889	-6825.1291	-6825.9716	-6826.2342	-6827.0221	-6824.0567	-6822.8203	-6822.7218	-6822.7546	-6822.1638	-6822.8094	-6822.2951	-6821.4525	-6820.9711	-6820.5772	-6819.5705	-6817.7979	-6818.5529	-6817.9182	-6818.0933	-6816.0143	-6817.9073
-6873.2523	-6873.1319	-6871.6766	-6871.4469	-6871.1624	-6871.2499	-6868.9192	-6869.3679	-6870.1666	-6869.2366	-6867.9454	-6868.4378	-6867.3326	-6868.7113	-6867.8360	-6867.2013	-6867.3874	-6866.3260	-6866.3260	-6863.9187	-6863.7436	-6863.2075	-6862.9996	-6861.5333	-6862.1461	-6861.6099	-6861.5990	-6861.0081	-6860.8331	-6859.5309	-6860.8112	-6860.9753	-6859.8592	-6859.5309	-6859.4762	-6857.3644	-6857.1346	-6858.0647	-6854.6070	-6855.8325	-6854.8477	-6856.4453	-6855.3839	-6855.7997	-6854.4976	-6854.5523	-6853.6660	-6852.1888	-6851.2040	-6852.4405	-6852.3748	-6851.7730	-6851.4666	-6849.7378	-6849.3986	-6848.3372	-6850.2411	-6848.9171	-6848.9828	-6848.0855	-6847.5931	-6846.1597	-6844.2230	-6844.0041	-6843.7197	-6846.3676	-6845.2734	-6845.0984	-6844.4637	-6843.0741	-6840.9294	-6841.3999	-6840.0212	-6838.8176	-6838.0954	-6839.7149	-6839.8790	-6838.5112	-6839.0255	-6838.6316	-6836.3556	-6835.2614	-6835.9508	-6834.8894	-6835.8414	-6834.7472	-6835.2505	-6833.9703	-6834.3423	-6833.5216	-6833.3575	-6832.8104	-6832.1867	-6831.5958	-6831.8913	-6830.9503	-6829.7576	-6829.1120	-6828.1381	-6828.8713	-6828.2804	-6828.7837	-6827.4816	-6827.6457	-6827.1643	-6826.3655	-6824.5163	-6825.9935	-6823.6957	-6824.2318	-6824.0896	-6821.3869	-6821.2118	-6820.6209	-6821.2009	-6820.6100	-6820.3693	-6819.5158	-6821.4963	-6817.5681	-6818.1152	-6818.3778	-6818.0167	-6817.4040	-6817.9620	-6817.7651	-6816.6490	-6815.0295
-6873.5149	-6871.2390	-6871.2061	-6870.9435	-6871.5563	-6870.6153	-6869.6195	-6869.6195	-6868.2299	-6867.9235	-6867.3983	-6868.0329	-6867.8797	-6865.7898	-6864.3126	-6863.8093	-6864.0828	-6864.1923	-6863.5357	-6863.7984	-6864.1485	-6862.3540	-6861.7303	-6860.8878	-6860.9534	-6860.7127	-6860.3735	-6861.0300	-6862.0695	-6861.2489	-6861.6647	-6860.0890	-6858.1741	-6857.2769	-6856.6094	-6855.3401	-6857.3644	-6856.0514	-6854.7930	-6854.1912	-6854.2240	-6854.3553	-6853.0751	-6853.7864	-6852.8672	-6853.2393	-6851.0727	-6851.9700	-6851.4885	-6851.8387	-6851.0399	-6848.8515	-6847.7573	-6847.5713	-6847.5166	-6848.1621	-6847.8448	-6847.2868	-6845.7002	-6844.5184	-6844.5403	-6843.3804	-6844.3105	-6844.6826	-6844.4090	-6843.1178	-6843.1616	-6843.4242	-6844.1792	-6842.0236	-6842.2644	-6841.9142	-6841.3452	-6840.2182	-6839.4194	-6840.5246	-6839.4960	-6839.9118	-6836.4103	-6837.4936	-6837.0122	-6835.4584	-6834.4079	-6833.5216	-6832.0226	-6831.5740	-6832.1539	-6833.1277	-6830.4688	-6830.1077	-6830.7642	-6830.9831	-6829.3199	-6828.4883	-6828.6305	-6828.8822	-6829.0901	-6828.4117	-6828.4117	-6827.8099	-6826.6281	-6826.5406	-6826.6828	-6827.2518	-6824.1005	-6823.6410	-6823.2470	-6823.4878	-6822.5139	-6824.0130	-6822.7765	-6821.2009	-6819.4939	-6819.7018	-6819.3517	-6819.4173	-6819.0343	-6818.6076	-6818.2027	-6818.3778	-6818.8155	-6817.7322	-6817.4149	-6815.3140	-6815.0077	-6814.5809	-6815.6861	-6814.7013
-6871.7095	-6871.1295	-6869.4773	-6869.6852	-6869.5977	-6868.1533	-6867.3655	-6867.5734	-6869.4992	-6868.8098	-6867.8032	-6866.0962	-6865.9539	-6864.6409	-6864.6737	-6865.5053	-6864.6190	-6864.5752	-6862.6057	-6862.2446	-6861.6428	-6862.1899	-6861.5115	-6862.0039	-6860.0781	-6858.3054	-6858.2945	-6859.2027	-6858.1741	-6856.8501	-6856.9596	-6855.4167	-6854.8696	-6854.8587	-6856.0842	-6854.8587	-6854.0818	-6852.4405	-6851.3791	-6852.2654	-6853.5785	-6851.9262	-6852.4843	-6852.5499	-6851.3135	-6852.1232	-6851.4119	-6849.4095	-6848.5779	-6850.4271	-6848.0199	-6848.5123	-6848.6764	-6848.2716	-6847.6479	-6846.5865	-6845.1202	-6845.4813	-6846.1926	-6845.6564	-6844.6169	-6845.4266	-6845.2297	-6843.1288	-6843.6321	-6843.3914	-6844.2996	-6842.8990	-6842.8552	-6840.4699	-6841.1045	-6840.1197	-6839.6711	-6838.1392	-6838.9817	-6838.5222	-6838.6316	-6837.1106	-6836.1806	-6835.4365	-6835.0426	-6835.4256	-6835.1958	-6834.9332	-6833.4232	-6833.5326	-6833.2809	-6832.0116	-6830.4688	-6831.4208	-6831.2238	-6831.0378	-6830.4797	-6828.0397	-6828.2476	-6829.0792	-6829.2542	-6828.3132	-6827.8099	-6826.4421	-6826.9673	-6824.5929	-6824.7461	-6823.9692	-6824.8665	-6824.5491	-6824.6257	-6820.9054	-6822.0544	-6821.4963	-6819.8222	-6820.1067	-6819.3407	-6818.6623	-6819.2313	-6819.6143	-6818.2246	-6818.2356	-6816.7474	-6817.2836	-6816.0909	-6816.6271	-6815.3687	-6815.4344	-6814.3402	-6814.4058	-6811.2764	-6811.7250
-6871.2718	-6872.0487	-6868.9740	-6868.8317	-6869.2037	-6869.9806	-6869.2366	-6867.9563	-6867.3764	-6866.0087	-6865.8117	-6864.7503	-6864.9144	-6864.0719	-6863.6671	-6862.5838	-6862.1242	-6860.5157	-6861.2707	-6862.1789	-6860.6470	-6860.2203	-6859.7607	-6859.0167	-6859.7498	-6859.2246	-6858.3820	-6859.1042	-6857.7255	-6857.2441	-6855.2417	-6856.5109	-6855.6575	-6854.3553	-6854.3772	-6854.4648	-6854.6070	-6854.3553	-6852.2107	-6852.9001	-6851.7183	-6850.3615	-6851.7840	-6850.5803	-6849.2016	-6848.1293	-6848.7202	-6847.6807	-6848.0199	-6847.8995	-6848.3372	-6848.0746	-6848.0965	-6845.7877	-6844.8467	-6845.7111	-6843.3039	-6842.9099	-6843.7087	-6844.5075	-6842.6473	-6842.9865	-6841.3780	-6842.0127	-6840.1635	-6841.0826	-6841.4765	-6840.8857	-6840.3386	-6838.9270	-6838.6972	-6838.5659	-6839.6601	-6836.6839	-6837.2638	-6837.2748	-6837.4061	-6836.3009	-6836.2681	-6834.4408	-6834.5611	-6835.0316	-6835.0316	-6833.9922	-6832.9417	-6833.1058	-6832.5697	-6830.2500	-6831.6943	-6830.2937	-6828.8384	-6829.6481	-6828.6524	-6828.8166	-6828.9041	-6828.7728	-6827.5692	-6827.3613	-6826.6063	-6824.4288	-6825.0415	-6825.3479	-6824.3412	-6824.4507	-6822.8859	-6822.2951	-6823.0063	-6822.1966	-6822.3279	-6821.3322	-6820.1176	-6817.7760	-6818.8702	-6818.9468	-6819.2422	-6817.5353	-6817.4259	-6816.7474	-6816.2113	-6816.5724	-6814.7779	-6815.4235	-6814.3730	-6813.7165	-6812.3816	-6812.3159	-6810.1931	-6811.5718
-6869.6414	-6869.5977	-6867.8579	-6867.2670	-6865.8992	-6866.0634	-6866.0305	-6865.9758	-6864.5424	-6864.7941	-6863.3060	-6865.1552	-6864.6081	-6865.3084	-6864.5971	-6863.7327	-6863.5576	-6861.6537	-6861.3692	-6859.9905	-6861.0519	-6860.7674	-6859.4981	-6858.5571	-6858.3383	-6857.3316	-6858.4039	-6857.3097	-6857.3316	-6856.3030	-6855.5043	-6855.6903	-6854.2459	-6854.9243	-6854.1584	-6853.5566	-6851.9919	-6852.9985	-6852.1669	-6852.2982	-6851.6636	-6849.5627	-6849.0047	-6849.0703	-6848.8296	-6850.1864	-6849.0047	-6847.1445	-6848.6436	-6846.9038	-6846.4880	-6845.7768	-6846.1269	-6846.3895	-6844.3981	-6843.0960	-6842.6911	-6844.2558	-6843.2929	-6841.9361	-6842.5926	-6842.4504	-6841.5531	-6839.7039	-6838.9599	-6839.5617	-6840.1854	-6839.9665	-6838.8285	-6839.4413	-6838.0626	-6838.1830	-6837.4827	-6836.5854	-6836.8918	-6836.4760	-6836.9575	-6836.3666	-6834.9769	-6834.5721	-6833.2371	-6831.8037	-6832.6353	-6833.0730	-6833.4998	-6831.1472	-6831.1800	-6830.3813	-6829.2542	-6829.7795	-6829.9108	-6829.0463	-6828.4883	-6827.8427	-6827.2847	-6826.3655	-6824.8227	-6825.9716	-6824.9540	-6825.7637	-6824.0239	-6823.7175	-6823.0938	-6823.3893	-6821.2556	-6820.4240	-6819.5158	-6820.6975	-6820.4130	-6819.7127	-6819.1547	-6817.4587	-6818.3340	-6817.0648	-6816.3426	-6815.8611	-6816.6161	-6816.2551	-6815.2265	-6813.8150	-6813.2569	-6813.5524	-6814.4168	-6813.8259	-6812.9068	-6811.3530	-6811.5937	-6810.5652
-6868.1424	-6866.9387	-6867.7047	-6866.2603	-6864.6956	-6864.1594	-6865.9868	-6866.3479	-6864.0172	-6863.3826	-6861.9820	-6864.4439	-6862.4087	-6862.1680	-6861.0738	-6861.0410	-6863.0652	-6861.3145	-6859.5966	-6859.1151	-6859.0933	-6858.9510	-6859.1261	-6857.1237	-6857.0471	-6856.3906	-6857.8459	-6856.0295	-6856.7845	-6855.9419	-6856.3249	-6854.5742	-6854.4976	-6853.6003	-6853.7535	-6852.8563	-6850.5584	-6850.1864	-6850.8539	-6850.9961	-6848.3919	-6848.2387	-6848.9937	-6849.5080	-6847.3524	-6847.4728	-6846.8819	-6847.7135	-6847.1445	-6847.6150	-6846.7506	-6846.5974	-6843.8291	-6843.4461	-6844.8357	-6844.2230	-6843.8510	-6841.9580	-6842.5160	-6841.7173	-6840.9732	-6841.0170	-6841.3015	-6840.1525	-6840.0541	-6839.6930	-6838.9599	-6838.2048	-6837.6249	-6835.9289	-6835.7210	-6837.1435	-6836.2681	-6836.3666	-6834.9551	-6835.7538	-6833.9484	-6833.2371	-6832.1101	-6834.7143	-6833.1934	-6832.4603	-6831.3879	-6831.9022	-6831.8037	-6829.6591	-6829.5606	-6828.6524	-6828.5430	-6828.8603	-6829.1667	-6827.7771	-6828.0725	-6826.3436	-6826.6938	-6826.2889	-6824.1115	-6824.8993	-6824.7023	-6823.1157	-6823.1486	-6823.5425	-6821.6167	-6821.9996	-6821.7042	-6821.9012	-6820.6428	-6819.2094	-6819.4392	-6817.6119	-6815.7189	-6815.8283	-6815.0843	-6817.6556	-6815.1937	-6815.2593	-6815.6532	-6814.8873	-6813.8806	-6813.5524	-6813.9353	-6812.4582	-6812.7098	-6811.7907	-6811.5390	-6810.7950	-6811.2655	-6809.8868
-6867.8797	-6865.5491	-6865.8883	-6864.6628	-6864.8597	-6863.6671	-6865.9102	-6864.5205	-6865.1989	-6863.9297	-6862.3868	-6862.8683	-6863.1528	-6862.9230	-6862.1133	-6862.2008	-6861.3911	-6859.5857	-6858.5243	-6859.9796	-6858.0757	-6857.9225	-6858.3820	-6857.9772	-6855.6137	-6854.9572	-6854.8806	-6855.8325	-6855.4496	-6854.6946	-6854.5304	-6852.6374	-6853.0423	-6852.4733	-6852.7797	-6851.0180	-6850.6350	-6851.1274	-6849.8144	-6849.5408	-6848.1184	-6847.9980	-6848.5013	-6848.1731	-6847.2977	-6845.5360	-6844.1902	-6846.4771	-6844.7810	-6845.7002	-6845.1421	-6845.0874	-6844.0041	-6843.0850	-6842.4723	-6842.4394	-6842.3628	-6842.4066	-6842.9865	-6839.6054	-6839.0146	-6838.7629	-6840.3823	-6839.2443	-6838.1939	-6838.3362	-6839.4304	-6837.3514	-6836.5964	-6836.9356	-6836.1587	-6836.1477	-6835.2724	-6834.5830	-6834.0031	-6834.6924	-6833.6639	-6833.1058	-6832.3290	-6832.5040	-6832.6682	-6832.6682	-6830.3047	-6829.6044	-6828.1491	-6827.8427	-6827.8427	-6827.9302	-6828.3898	-6827.7223	-6825.6434	-6824.6695	-6824.3412	-6824.8227	-6824.8446	-6823.6519	-6824.1333	-6824.7242	-6822.5577	-6821.5510	-6821.3759	-6820.9273	-6822.1528	-6819.9754	-6820.7304	-6819.1875	-6819.0125	-6818.4872	-6818.5638	-6818.3122	-6816.5067	-6817.3493	-6815.8721	-6815.7736	-6813.7821	-6814.3292	-6813.6618	-6813.7384	-6813.0928	-6811.9548	-6810.5323	-6811.6156	-6811.3421	-6810.7512	-6810.8387	-6808.7707	-6808.3877	-6807.6874
-6866.9716	-6864.8379	-6864.8050	-6864.7831	-6865.4725	-6863.0434	-6863.7765	-6864.0938	-6864.2689	-6860.9096	-6861.2598	-6861.4239	-6862.4744	-6861.6209	-6861.9710	-6861.0081	-6860.1656	-6857.7255	-6857.1675	-6858.5571	-6858.2617	-6858.6118	-6857.4410	-6855.5043	-6854.2459	-6855.2307	-6855.5480	-6854.2678	-6852.7140	-6853.9943	-6852.4405	-6853.0423	-6852.1888	-6851.3791	-6849.9019	-6850.4600	-6850.0879	-6848.2716	-6848.4576	-6846.9804	-6847.7901	-6846.5646	-6845.3391	-6845.1202	-6846.7615	-6845.8752	-6845.1421	-6843.7853	-6843.5008	-6842.0893	-6843.1069	-6842.8115	-6841.5312	-6842.3191	-6839.8024	-6841.1920	-6840.5355	-6840.2948	-6839.3209	-6839.2662	-6838.4018	-6839.2225	-6837.5155	-6837.3842	-6837.4498	-6835.2724	-6836.4432	-6836.6182	-6835.2833	-6834.4189	-6835.3927	-6835.1192	-6834.9551	-6833.4560	-6832.7557	-6831.2457	-6831.1910	-6830.1734	-6829.2433	-6830.3156	-6830.7642	-6830.5235	-6829.6481	-6826.9345	-6826.1029	-6827.1862	-6826.9564	-6828.3679	-6826.8142	-6827.1971	-6826.7704	-6826.3108	-6824.5163	-6823.0829	-6823.0173	-6824.3084	-6823.7394	-6801.2972	-6788.1777	-6767.0376	-6690.4650	-6689.3380	-6694.9184	-6731.5087	-6696.1439	-6726.8802	-6763.2845	-6813.9025	-6818.9359	-6817.5462	-6816.8240	-6816.0362	-6816.3754	-6815.3469	-6813.4867	-6814.5043	-6814.4496	-6815.1061	-6813.5195	-6813.1475	-6811.2545	-6811.3092	-6812.3487	-6812.3050	-6809.8321	-6809.7445	-6809.3725	-6808.5409
-6864.1594	-6864.4549	-6865.4834	-6866.1947	-6865.1223	-6864.6190	-6863.7874	-6863.7874	-6862.8573	-6862.9886	-6862.8573	-6861.6537	-6862.8902	-6860.2422	-6859.7498	-6859.0933	-6860.2750	-6858.3492	-6860.1984	-6859.0604	-6858.6556	-6858.4696	-6855.8325	-6854.8149	-6855.0009	-6855.5918	-6855.0885	-6852.9001	-6851.9590	-6853.0095	-6851.8606	-6852.3967	-6851.2697	-6851.3791	-6848.0855	-6847.9980	-6846.5427	-6847.3087	-6846.5646	-6847.3634	-6848.1293	-6846.4223	-6845.0327	-6845.0765	-6845.5470	-6843.2163	-6845.2297	-6844.1026	-6844.1573	-6841.9799	-6841.5312	-6840.7215	-6842.1878	-6840.5902	-6840.3495	-6838.3362	-6839.6601	-6839.9446	-6837.2310	-6837.7891	-6838.0407	-6837.5702	-6837.1763	-6837.5812	-6835.7648	-6836.6073	-6833.2700	-6833.9374	-6833.9812	-6833.2590	-6832.1211	-6832.7557	-6832.0773	-6831.5630	-6831.1691	-6830.8518	-6830.9503	-6830.2718	-6829.3089	-6828.1600	-6829.8779	-6829.6591	-6829.8670	-6828.3789	-6828.7618	-6828.0615	-6826.2780	-6825.2932	-6826.6281	-6827.2737	-6825.8622	-6824.2975	-6822.8094	-6824.9321	-6824.1771	-6816.8350	-6729.7908	-6693.5069	-6663.2739	-6657.1354	-6656.4570	-6656.8838	-6656.2382	-6655.5707	-6654.6406	-6654.9580	-6656.6759	-6684.1076	-6751.8500	-6805.4333	-6812.9834	-6819.5596	-6818.3450	-6817.3055	-6817.4696	-6816.5395	-6815.8283	-6813.9463	-6813.7821	-6813.2350	-6812.7864	-6811.7579	-6810.1822	-6809.7664	-6808.8801	-6809.8102	-6808.8363	-6809.4163
-6865.8445	-6865.8008	-6865.6147	-6865.3193	-6863.2294	-6862.3649	-6860.6142	-6862.1789	-6862.5728	-6861.7522	-6860.5486	-6860.4063	-6859.0714	-6859.2136	-6859.6513	-6859.8154	-6859.2902	-6857.4848	-6857.9772	-6857.2331	-6856.2593	-6855.2745	-6855.9967	-6854.5632	-6854.2897	-6854.3991	-6853.2940	-6851.7730	-6852.1232	-6852.2107	-6850.4381	-6849.8034	-6850.0989	-6849.4314	-6848.6545	-6848.0746	-6848.1512	-6847.1664	-6846.5974	-6848.1074	-6847.4071	-6846.7615	-6845.6673	-6846.8819	-6845.9300	-6845.3938	-6844.4309	-6842.4723	-6842.9318	-6841.8595	-6841.5422	-6841.7282	-6841.4437	-6840.2838	-6840.7215	-6839.6383	-6837.9204	-6836.6730	-6837.3951	-6836.0930	-6836.3447	-6835.1301	-6836.4432	-6836.3666	-6836.3228	-6834.7909	-6834.4298	-6834.3532	-6833.7624	-6833.0949	-6831.8366	-6833.3028	-6832.6353	-6832.6791	-6831.6396	-6830.6876	-6830.2828	-6830.5345	-6830.5782	-6830.1187	-6828.3789	-6827.4816	-6827.1643	-6828.2476	-6828.1600	-6826.1029	-6825.9278	-6825.0087	-6825.1838	-6824.2975	-6825.4573	-6823.1157	-6822.1419	-6820.5225	-6761.9495	-6695.0825	-6657.0698	-6654.6735	-6654.4875	-6655.1768	-6654.5093	-6654.2905	-6653.2729	-6653.0759	-6652.0802	-6654.5531	-6653.4808	-6654.0935	-6654.6078	-6664.9262	-6705.1055	-6788.0026	-6819.2860	-6817.7432	-6815.8502	-6814.0229	-6814.4277	-6814.0995	-6813.3335	-6812.5347	-6813.2569	-6813.0053	-6811.9548	-6810.5433	-6811.4296	-6810.7731	-6809.6132	-6806.7245
-6865.1771	-6862.8245	-6862.0586	-6861.8397	-6863.2294	-6861.3145	-6861.9054	-6861.3473	-6860.5704	-6860.8440	-6861.0957	-6860.3625	-6858.6665	-6859.0167	-6858.3711	-6857.9006	-6856.2264	-6857.5395	-6855.7231	-6855.2964	-6854.2459	-6854.0052	-6853.7316	-6855.5371	-6853.9724	-6851.7621	-6852.0575	-6851.0837	-6851.5104	-6851.7840	-6852.1998	-6851.0180	-6851.3900	-6849.9457	-6849.1250	-6848.9718	-6849.4642	-6849.1250	-6848.5889	-6847.2102	-6845.1421	-6846.4333	-6845.3719	-6844.5622	-6844.8467	-6843.9276	-6841.6188	-6842.0674	-6841.2796	-6844.0260	-6842.5489	-6843.0522	-6840.4480	-6839.2006	-6838.7082	-6840.0322	-6838.7410	-6836.4541	-6836.3447	-6835.9617	-6835.5897	-6834.3423	-6835.0207	-6833.7952	-6834.2001	-6832.8323	-6832.7010	-6832.9308	-6833.2262	-6832.4165	-6833.9046	-6832.7229	-6831.8694	-6830.1515	-6831.2785	-6829.7357	-6828.4117	-6829.1776	-6830.3266	-6828.5649	-6826.4093	-6827.5363	-6826.8470	-6825.9826	-6824.8665	-6825.4683	-6825.0525	-6823.6081	-6822.1528	-6823.4112	-6822.4701	-6823.3783	-6790.8038	-6718.0609	-6664.1055	-6654.8157	-6655.4394	-6653.8200	-6653.9622	-6652.2115	-6653.6230	-6651.9708	-6652.1787	-6651.9270	-6651.9270	-6652.8133	-6652.5726	-6652.1787	-6651.5988	-6652.5835	-6653.1854	-6673.4938	-6748.0969	-6794.9180	-6817.6119	-6816.5943	-6814.8545	-6815.4344	-6814.7232	-6813.9900	-6813.2022	-6811.3639	-6811.4843	-6811.2108	-6810.0290	-6808.9020	-6809.7226	-6808.6175
-6861.9710	-6861.5990	-6862.0914	-6862.1133	-6862.3649	-6861.8069	-6861.8726	-6859.9796	-6858.6009	-6857.8459	-6860.2422	-6859.4106	-6860.0343	-6858.6337	-6858.6009	-6856.5656	-6856.1389	-6855.7997	-6855.4386	-6853.9177	-6853.8411	-6854.3444	-6853.0861	-6852.9985	-6851.9043	-6852.7906	-6852.4295	-6852.8235	-6851.4666	-6851.4995	-6850.2958	-6850.3615	-6849.8910	-6849.2673	-6847.6369	-6847.9871	-6848.5123	-6845.5470	-6846.5208	-6844.7810	-6846.6084	-6844.5513	-6844.2886	-6842.9209	-6843.1288	-6843.3367	-6843.0850	-6842.6911	-6842.8224	-6842.1221	-6842.5051	-6841.6407	-6840.2072	-6840.2620	-6838.5222	-6837.5264	-6836.3885	-6837.9751	-6837.3623	-6837.8985	-6834.8019	-6835.3161	-6835.9180	-6835.6991	-6834.3642	-6834.2438	-6834.0578	-6832.5806	-6832.9855	-6832.0992	-6832.2305	-6830.6767	-6831.1910	-6827.9412	-6829.3855	-6828.9588	-6829.6591	-6826.8470	-6826.3108	-6826.2999	-6827.6457	-6826.5187	-6824.0567	-6824.3522	-6825.3041	-6823.0610	-6822.1857	-6823.6519	-6822.0762	-6821.3869	-6821.5838	-6779.5991	-6715.7740	-6654.9361	-6652.9118	-6653.8638	-6653.5027	-6653.0978	-6652.6930	-6653.2072	-6653.5246	-6653.2729	-6653.5136	-6651.7410	-6651.8504	-6650.5702	-6650.8000	-6650.5264	-6650.7781	-6650.3404	-6651.0954	-6649.7933	-6651.6316	-6681.3065	-6769.1275	-6815.3578	-6813.6399	-6813.7274	-6811.9110	-6813.9572	-6812.4691	-6810.6199	-6808.1360	-6809.6351	-6810.1931	-6810.0181	-6808.8254	-6809.0552
-6864.2798	-6863.5686	-6860.9425	-6863.1309	-6860.9096	-6859.8373	-6858.7103	-6859.4325	-6858.3273	-6856.9596	-6857.5395	-6856.6313	-6856.2593	-6857.0252	-6855.4058	-6854.2569	-6854.5632	-6854.2897	-6855.1760	-6854.2788	-6854.5523	-6853.0314	-6853.1736	-6852.8453	-6850.8867	-6850.5037	-6851.1056	-6849.4205	-6849.0047	-6849.0813	-6848.2059	-6850.4490	-6848.3263	-6847.5822	-6846.1597	-6846.7287	-6847.2539	-6847.5822	-6846.7834	-6845.3828	-6845.7111	-6846.1379	-6844.9342	-6843.6431	-6841.5750	-6841.0060	-6840.8528	-6839.8133	-6841.1045	-6840.7434	-6841.0717	-6840.5683	-6838.8504	-6838.2814	-6839.1021	-6837.3623	-6836.7167	-6837.9860	-6835.7648	-6835.4037	-6835.7648	-6836.5964	-6835.2724	-6836.3009	-6833.3137	-6833.8718	-6832.6025	-6834.0906	-6833.3794	-6833.1058	-6832.4493	-6832.1429	-6831.6396	-6830.5016	-6830.2828	-6829.8232	-6829.3199	-6828.4226	-6827.3394	-6825.6762	-6827.6020	-6826.1467	-6824.3960	-6822.6343	-6824.4507	-6822.7546	-6822.3826	-6822.1857	-6822.8094	-6822.7328	-6795.8809	-6704.0550	-6654.1483	-6653.1744	-6652.8243	-6654.3014	-6654.2577	-6654.0607	-6652.0255	-6652.5726	-6652.2006	-6653.2838	-6652.0036	-6651.4784	-6650.6796	-6651.5988	-6651.3580	-6650.1435	-6650.1435	-6649.0274	-6649.8371	-6648.5569	-6649.0602	-6649.4979	-6668.2854	-6751.6749	-6813.9025	-6813.2241	-6812.8630	-6811.6703	-6812.3816	-6810.5433	-6808.8473	-6808.5081	-6808.3330	-6808.6941	-6807.4357	-6807.7531
-6861.3036	-6860.8878	-6860.5814	-6860.2860	-6859.7060	-6859.0933	-6860.7565	-6860.7674	-6857.4629	-6859.5419	-6858.7212	-6860.0999	-6856.2593	-6856.7954	-6856.7407	-6856.4015	-6854.1584	-6854.7930	-6855.5590	-6852.8782	-6853.2283	-6851.8387	-6851.8168	-6852.4186	-6850.1864	-6849.1469	-6849.6284	-6849.0594	-6849.3111	-6847.6369	-6845.7658	-6845.3938	-6847.0242	-6846.3348	-6846.5755	-6844.2011	-6844.0698	-6843.5446	-6844.5513	-6843.6212	-6841.8048	-6842.1221	-6841.2796	-6840.9841	-6841.5969	-6843.2820	-6841.5859	-6839.6492	-6840.1307	-6840.6230	-6839.8024	-6839.9337	-6838.3252	-6837.0888	-6838.1501	-6837.4717	-6837.5374	-6834.6158	-6835.0098	-6833.9484	-6835.3927	-6834.1891	-6834.9660	-6834.0687	-6833.1496	-6830.7095	-6831.1363	-6830.5563	-6831.4098	-6829.4621	-6828.6852	-6830.5126	-6828.4117	-6828.2585	-6828.2476	-6826.9236	-6825.7199	-6826.0373	-6827.3065	-6825.4792	-6826.6500	-6826.1686	-6825.3589	-6824.5163	-6824.0458	-6823.1595	-6825.2166	-6823.6957	-6823.9583	-6808.5409	-6679.6323	-6656.0194	-6655.0783	-6653.7325	-6653.9732	-6653.1306	-6653.2510	-6653.1416	-6652.7148	-6652.4085	-6652.0255	-6652.4413	-6651.7738	-6651.6206	-6649.3337	-6650.2857	-6649.4979	-6649.4979	-6648.8414	-6647.7909	-6647.3861	-6647.7909	-6646.8280	-6645.6791	-6646.0839	-6666.2392	-6792.0074	-6813.3882	-6813.7603	-6812.4582	-6812.3378	-6810.6637	-6810.7184	-6809.0442	-6808.2783	-6806.3525	-6806.8886	-6806.4181
-6861.3364	-6859.5638	-6859.3778	-6858.3492	-6858.0428	-6856.7626	-6857.6380	-6858.4039	-6856.4672	-6856.5985	-6856.6860	-6854.6617	-6854.2459	-6856.4234	-6854.5961	-6853.5128	-6851.8277	-6854.2131	-6853.4581	-6853.5675	-6852.3201	-6853.1517	-6852.7578	-6851.1493	-6849.5737	-6848.8296	-6849.2892	-6848.4247	-6848.9500	-6849.3548	-6848.8953	-6847.0898	-6847.5166	-6845.4266	-6844.7373	-6844.7263	-6844.4418	-6843.3586	-6844.1792	-6842.3519	-6842.2096	-6841.5422	-6840.6340	-6841.1154	-6841.1373	-6841.6188	-6839.6054	-6839.2991	-6838.8942	-6839.5945	-6838.8395	-6838.9380	-6837.9860	-6837.6359	-6835.9727	-6835.5678	-6835.2833	-6834.1891	-6833.1934	-6833.3575	-6834.1453	-6833.5764	-6834.4627	-6833.9484	-6833.7295	-6831.5302	-6832.1867	-6830.9174	-6830.3266	-6829.9983	-6829.3418	-6828.2147	-6828.5102	-6828.9697	-6827.6129	-6827.9084	-6827.6239	-6828.1163	-6826.7266	-6826.0920	-6824.7789	-6823.9692	-6823.2580	-6823.1814	-6822.1638	-6821.5620	-6821.7808	-6821.8465	-6820.8179	-6706.1997	-6658.0436	-6653.9513	-6653.8309	-6653.4698	-6651.9598	-6650.0340	-6652.5835	-6651.3143	-6651.3690	-6650.6687	-6651.4346	-6650.8985	-6651.3033	-6652.1240	-6652.1568	-6651.5550	-6651.2814	-6651.3690	-6650.0122	-6649.7714	-6649.4650	-6649.5854	-6647.9660	-6647.7471	-6646.1277	-6647.3532	-6711.7583	-6802.4352	-6812.9615	-6811.9001	-6810.9700	-6810.5871	-6808.7269	-6808.9348	-6808.2892	-6806.7136	-6806.3087	-6805.0613
-6861.2160	-6859.2465	-6858.8744	-6858.4039	-6858.3601	-6857.3972	-6858.0209	-6857.7146	-6858.1741	-6857.5614	-6856.6094	-6855.3948	-6857.0252	-6854.5742	-6852.9110	-6852.5280	-6853.4143	-6851.3791	-6850.2083	-6849.7706	-6851.6964	-6851.3791	-6850.1098	-6850.3177	-6848.8843	-6850.5694	-6849.4971	-6847.1117	-6846.6521	-6846.8819	-6845.3610	-6845.3391	-6844.7920	-6845.0984	-6845.9737	-6845.6017	-6845.6345	-6844.8029	-6842.6364	-6841.3562	-6841.9252	-6842.2534	-6842.6583	-6841.2358	-6841.8704	-6839.4413	-6840.6012	-6839.8133	-6838.2267	-6837.3733	-6836.9684	-6836.3338	-6835.0316	-6835.3052	-6836.2024	-6835.1630	-6834.2548	-6835.3271	-6833.9593	-6833.4888	-6832.9745	-6832.8542	-6831.9460	-6831.9350	-6830.4250	-6829.8560	-6831.1253	-6830.6548	-6829.6810	-6828.9697	-6829.7029	-6828.9260	-6828.3242	-6827.1752	-6828.1272	-6827.2518	-6826.3765	-6826.4202	-6826.1357	-6825.3807	-6824.7461	-6823.6628	-6822.5249	-6821.2665	-6821.6167	-6822.8203	-6819.8878	-6820.5225	-6770.2546	-6663.4052	-6653.6887	-6651.9270	-6649.4322	-6649.3775	-6651.6316	-6651.5659	-6652.2662	-6651.5878	-6651.9708	-6651.2486	-6649.4322	-6648.7538	-6648.9617	-6648.6116	-6650.0012	-6648.8195	-6648.9398	-6647.7362	-6648.2942	-6648.1301	-6647.5830	-6644.1144	-6643.8627	-6645.9745	-6646.1715	-6646.4779	-6647.6815	-6754.6512	-6811.6922	-6811.4734	-6809.7445	-6810.0290	-6809.4600	-6809.5147	-6808.2892	-6808.3330	-6805.7616	-6805.0613
-6860.2203	-6860.2094	-6858.8635	-6859.0495	-6857.8021	-6858.6118	-6855.0119	-6854.8368	-6853.7864	-6854.6180	-6853.6441	-6853.9833	-6855.2307	-6854.7711	-6853.5566	-6852.0685	-6853.0204	-6853.0751	-6852.5827	-6851.7511	-6851.2806	-6848.7639	-6848.6655	-6849.7050	-6849.2454	-6848.0418	-6847.2102	-6846.8381	-6846.1707	-6846.5755	-6845.4813	-6844.9233	-6843.5336	-6844.6607	-6845.2187	-6844.9014	-6842.7239	-6843.0522	-6842.7239	-6843.4899	-6828.5539	-6801.3957	-6782.3893	-6756.6426	-6737.4174	-6744.8033	-6788.9765	-6802.4352	-6829.1558	-6834.8894	-6837.6030	-6837.6359	-6837.1325	-6836.7167	-6836.2134	-6832.8213	-6833.3466	-6833.8827	-6834.1125	-6831.1910	-6831.1800	-6833.6639	-6831.9022	-6831.8584	-6830.3156	-6829.8889	-6829.4074	-6830.1296	-6829.4074	-6829.5168	-6827.4160	-6828.1929	-6827.7114	-6826.3327	-6825.6652	-6825.6434	-6826.0701	-6824.2428	-6823.4659	-6823.8379	-6824.8555	-6823.1267	-6823.5972	-6820.1614	-6820.6756	-6821.5510	-6821.8136	-6801.7459	-6686.1648	-6652.4851	-6651.4346	-6652.7258	-6652.7586	-6652.3538	-6651.4018	-6651.4346	-6650.5374	-6652.0693	-6651.3909	-6650.7781	-6649.7058	-6650.3842	-6649.3337	-6648.5569	-6649.1806	-6648.5569	-6648.2177	-6647.7800	-6647.8784	-6647.7471	-6647.7581	-6646.8390	-6646.4779	-6645.7119	-6645.2633	-6644.3223	-6647.0687	-6665.0794	-6795.1587	-6811.3202	-6809.5585	-6808.0485	-6807.9610	-6807.7093	-6806.8996	-6806.5823	-6805.8273	-6804.7002
-6859.7717	-6859.9577	-6858.4149	-6859.5857	-6858.5899	-6858.7650	-6857.5395	-6855.3073	-6853.5019	-6853.1845	-6852.5280	-6853.8848	-6851.8715	-6852.4733	-6852.8344	-6853.0751	-6850.7335	-6851.2040	-6851.9371	-6850.3505	-6849.5299	-6848.5560	-6847.8995	-6846.6193	-6846.6193	-6846.3020	-6847.3087	-6846.2363	-6845.7439	-6844.5841	-6846.0941	-6845.4047	-6845.4594	-6843.6978	-6842.8443	-6843.7197	-6843.4680	-6842.1331	-6812.6770	-6757.1897	-6714.2859	-6677.6956	-6674.2926	-6675.1570	-6674.0081	-6675.5838	-6675.3540	-6674.1832	-6684.0201	-6761.5009	-6760.9538	-6825.8075	-6839.2662	-6837.7891	-6837.7015	-6836.7058	-6834.8675	-6833.0402	-6833.4779	-6833.0183	-6831.4536	-6831.7819	-6832.5916	-6831.5849	-6831.3113	-6830.4797	-6828.7509	-6828.2913	-6827.7880	-6829.6700	-6829.1010	-6828.4445	-6827.9850	-6828.0725	-6824.6804	-6826.5625	-6826.4968	-6825.2932	-6824.5601	-6824.3741	-6823.5534	-6821.9559	-6821.9559	-6822.4920	-6822.8312	-6821.8136	-6821.2665	-6767.5519	-6667.0161	-6652.1240	-6651.3252	-6650.3732	-6651.3799	-6650.9203	-6651.4784	-6651.8614	-6650.7781	-6650.3295	-6650.1763	-6650.2748	-6648.8414	-6648.6663	-6647.7471	-6647.9550	-6646.7514	-6647.6377	-6646.7842	-6647.3204	-6646.0402	-6645.8432	-6645.2961	-6645.3946	-6645.4274	-6645.1429	-6645.1539	-6643.4469	-6642.5387	-6648.9617	-6742.1006	-6811.3311	-6811.0357	-6809.0771	-6808.5518	-6805.3458	-6806.2212	-6805.8273	-6805.0066	-6805.0723
-6859.3340	-6858.5462	-6856.6204	-6855.7669	-6857.3863	-6857.3535	-6856.8939	-6856.2264	-6855.8325	-6853.1189	-6852.0137	-6851.7730	-6852.5171	-6854.2022	-6852.7469	-6852.9657	-6850.8429	-6849.2782	-6849.4533	-6850.4928	-6848.0637	-6848.3700	-6848.7311	-6848.3919	-6848.0089	-6847.7245	-6847.3962	-6846.1160	-6845.4376	-6844.8686	-6845.3500	-6843.5883	-6844.4528	-6841.6844	-6842.6254	-6841.5969	-6832.3618	-6760.9319	-6688.5064	-6675.5509	-6674.5662	-6673.2093	-6673.6251	-6673.4172	-6672.0714	-6672.4106	-6673.3188	-6673.7783	-6672.1808	-6673.6689	-6674.5443	-6705.7182	-6757.1679	-6827.5254	-6838.6206	-6837.6468	-6836.9903	-6835.5131	-6834.8128	-6834.4298	-6834.3751	-6833.0292	-6833.1496	-6831.4864	-6830.1953	-6828.1381	-6830.1843	-6830.2062	-6830.0530	-6828.3679	-6827.9302	-6827.6786	-6827.2628	-6827.4488	-6826.7266	-6824.9431	-6822.0325	-6824.1115	-6823.7941	-6823.4987	-6822.3060	-6821.9668	-6820.0957	-6820.9820	-6821.0149	-6821.2446	-6820.0082	-6746.0617	-6653.6121	-6652.2553	-6652.8133	-6651.1830	-6651.8395	-6649.5745	-6650.5921	-6649.0493	-6651.2048	-6649.6620	-6649.7167	-6648.6225	-6648.8523	-6647.2876	-6647.1234	-6646.7186	-6646.1168	-6646.8061	-6646.4013	-6646.0730	-6644.9022	-6644.1800	-6643.1296	-6643.2171	-6642.4293	-6642.9655	-6641.8931	-6643.8189	-6643.6220	-6645.4384	-6696.1330	-6810.1931	-6810.7621	-6809.1974	-6808.1360	-6805.3020	-6805.8491	-6804.8972	-6805.4552	-6803.2230
-6858.3601	-6858.4805	-6856.3249	-6854.9572	-6854.7383	-6853.3924	-6854.1365	-6853.5785	-6855.0119	-6854.3225	-6851.9262	-6851.2587	-6851.4885	-6850.3505	-6852.0137	-6849.7378	-6848.6983	-6851.1384	-6850.1536	-6849.9019	-6849.0813	-6849.8034	-6847.3634	-6846.4552	-6845.1531	-6846.5755	-6845.3938	-6846.0613	-6844.9780	-6844.9561	-6844.2230	-6844.3543	-6842.7458	-6842.9099	-6835.0535	-6777.3341	-6699.8971	-6674.6865	-6674.1832	-6673.0343	-6673.3297	-6672.8045	-6671.1632	-6671.0866	-6672.5091	-6672.3996	-6672.0714	-6670.3535	-6670.3535	-6671.2945	-6670.9553	-6671.2835	-6672.0604	-6679.8621	-6775.9882	-6828.8931	-6837.2967	-6836.3119	-6835.2177	-6834.8347	-6832.8104	-6833.6092	-6832.0882	-6831.6943	-6831.4317	-6831.4426	-6831.3004	-6829.8779	-6829.3965	-6828.4445	-6828.1272	-6827.5144	-6826.8360	-6825.6981	-6826.5406	-6825.2494	-6824.2646	-6821.7261	-6822.2513	-6823.1595	-6822.6452	-6822.3388	-6822.8859	-6821.1243	-6819.8988	-6821.0477	-6816.3973	-6703.7706	-6652.5945	-6651.9489	-6650.6577	-6650.6796	-6650.1653	-6650.2748	-6648.7757	-6649.1587	-6649.8590	-6648.4693	-6648.6772	-6647.7471	-6648.7648	-6647.8019	-6647.9003	-6645.3399	-6646.6201	-6645.8870	-6646.2481	-6644.8366	-6644.9569	-6644.3879	-6644.0706	-6642.8998	-6642.6919	-6642.7138	-6642.7576	-6642.4184	-6640.9302	-6642.7247	-6658.0217	-6757.9885	-6808.3877	-6807.9938	-6804.4595	-6803.9015	-6802.7416	-6803.2778	-6802.7744	-6802.5775
-6856.0951	-6855.7888	-6856.9048	-6857.1893	-6854.6617	-6854.2678	-6853.3815	-6853.8848	-6854.6070	-6853.9943	-6853.1298	-6853.0423	-6853.6332	-6850.8758	-6851.1712	-6851.1056	-6850.7116	-6848.4685	-6848.5670	-6849.3439	-6847.9324	-6846.0394	-6847.1008	-6847.3415	-6846.6084	-6845.4923	-6844.5950	-6844.1355	-6843.1397	-6843.3586	-6843.3914	-6843.7087	-6842.9975	-6833.0949	-6747.6701	-6678.5381	-6674.6646	-6673.6251	-6672.7279	-6673.1109	-6673.3516	-6671.1413	-6670.9225	-6670.4738	-6672.0276	-6671.8197	-6672.0933	-6671.1741	-6670.4629	-6670.1565	-6670.4738	-6669.2045	-6669.2374	-6669.5875	-6671.4805	-6745.9085	-6808.5956	-6835.4365	-6833.4341	-6833.7405	-6831.6505	-6830.2828	-6829.3199	-6830.2828	-6829.0792	-6829.4621	-6828.8822	-6828.5211	-6828.1710	-6827.8755	-6825.2823	-6826.0482	-6825.7856	-6825.5120	-6824.6257	-6822.8641	-6823.9145	-6823.2908	-6822.7437	-6821.8027	-6822.8422	-6821.1352	-6821.4088	-6819.7893	-6820.0629	-6819.2204	-6786.1534	-6667.0708	-6651.2377	-6651.5440	-6650.0778	-6649.9903	-6650.0012	-6650.6030	-6649.4432	-6649.0602	-6648.4912	-6649.5745	-6648.2833	-6648.2724	-6647.7362	-6646.5982	-6645.3837	-6645.9855	-6646.1824	-6645.4931	-6644.8803	-6643.9721	-6644.8913	-6643.4688	-6644.0050	-6643.2281	-6642.8232	-6642.2871	-6642.2542	-6642.1339	-6641.9588	-6642.7794	-6648.1520	-6758.0432	-6806.8339	-6806.7354	-6806.4181	-6805.7835	-6804.5361	-6804.4923	-6802.5556	-6802.1617
-6858.2179	-6855.5699	-6854.4101	-6854.3335	-6855.5699	-6855.2088	-6852.1779	-6851.9809	-6850.6788	-6851.5651	-6851.6855	-6852.1560	-6849.8582	-6848.4357	-6849.4205	-6850.0113	-6849.6284	-6848.9390	-6848.6764	-6848.2716	-6846.4552	-6845.7111	-6846.8819	-6844.2668	-6845.1531	-6845.4923	-6845.3828	-6844.6060	-6845.4485	-6843.5008	-6844.4090	-6843.0850	-6828.7290	-6742.1991	-6680.0919	-6675.3321	-6673.5157	-6673.6689	-6672.1480	-6672.0276	-6671.3820	-6671.9291	-6671.1413	-6670.2988	-6669.4234	-6670.1346	-6670.0909	-6670.6161	-6670.3644	-6669.3687	-6668.7450	-6668.2307	-6667.0271	-6667.4866	-6668.7887	-6670.0143	-6734.0144	-6798.0256	-6834.2219	-6833.9484	-6833.3356	-6830.2390	-6829.7466	-6828.2366	-6826.7704	-6829.3637	-6828.9479	-6828.5977	-6827.5363	-6827.6895	-6826.5515	-6824.3303	-6822.1857	-6822.8641	-6823.0720	-6823.1595	-6820.4787	-6820.9383	-6821.8793	-6819.9972	-6818.4216	-6819.3626	-6820.5006	-6819.8441	-6819.8878	-6818.7170	-6778.0344	-6673.5376	-6650.6906	-6649.5745	-6649.9356	-6649.3775	-6649.9793	-6649.2462	-6649.9684	-6649.2681	-6647.4627	-6646.0183	-6647.2657	-6647.5830	-6647.4298	-6647.6815	-6646.8937	-6646.6858	-6645.7885	-6646.0511	-6645.0335	-6644.0597	-6642.8013	-6643.8189	-6643.5126	-6642.8560	-6641.9588	-6641.5320	-6642.7576	-6642.3199	-6642.1448	-6641.4445	-6642.8013	-6719.7022	-6795.6183	-6804.6455	-6804.1859	-6804.3391	-6802.8401	-6802.7635	-6802.1835	-6801.3410
-6857.1456	-6856.0514	-6855.5480	-6855.5261	-6854.7164	-6852.0794	-6852.9001	-6852.3311	-6852.1669	-6853.2283	-6850.7007	-6850.2630	-6850.4271	-6850.6350	-6848.8296	-6849.5955	-6847.9542	-6848.7639	-6847.8995	-6845.4047	-6845.2515	-6845.7221	-6844.1902	-6842.9537	-6844.2886	-6843.1288	-6843.6431	-6843.3804	-6844.2777	-6840.8966	-6840.3823	-6833.8937	-6708.4428	-6678.3193	-6671.8635	-6671.5571	-6673.0780	-6673.4829	-6672.2683	-6672.6185	-6671.6775	-6670.6817	-6671.5680	-6670.8677	-6669.1936	-6670.5395	-6670.6927	-6671.1413	-6670.1784	-6668.3401	-6667.4757	-6668.2526	-6668.1432	-6667.4429	-6666.9614	-6666.7535	-6667.5632	-6706.0793	-6817.3383	-6830.7642	-6833.4888	-6831.7162	-6829.4184	-6829.5716	-6830.2062	-6828.3023	-6828.2694	-6827.7552	-6827.4597	-6826.9126	-6825.9607	-6824.7570	-6824.0677	-6824.4178	-6822.3936	-6822.1419	-6822.2185	-6822.9188	-6821.2556	-6820.8507	-6818.1809	-6819.0672	-6817.1414	-6818.3012	-6816.7037	-6815.6532	-6746.2148	-6653.5464	-6649.5854	-6648.4256	-6649.5416	-6649.6620	-6647.9769	-6648.4912	-6648.4584	-6646.5654	-6645.9745	-6645.6134	-6646.1058	-6645.4931	-6643.6548	-6643.7861	-6628.3031	-6623.4120	-6643.8737	-6643.0092	-6642.8123	-6643.7205	-6642.2323	-6642.3855	-6641.1162	-6640.5582	-6639.9454	-6641.1928	-6640.9412	-6641.1491	-6641.0068	-6639.3546	-6639.9126	-6683.0791	-6798.4632	-6805.0394	-6804.0656	-6801.9975	-6802.4133	-6799.9623	-6799.4480	-6801.1331
-6855.9638	-6854.9353	-6855.1104	-6854.2459	-6854.2897	-6853.0532	-6851.0071	-6849.5737	-6849.6940	-6848.7202	-6848.5670	-6848.8734	-6849.5955	-6849.8144	-6848.1950	-6847.5713	-6847.1992	-6845.6673	-6845.2187	-6846.1488	-6845.7768	-6845.9300	-6845.1749	-6844.9014	-6843.5336	-6843.5008	-6841.0717	-6841.5750	-6839.8352	-6840.9513	-6838.9599	-6773.8108	-6681.4050	-6669.8064	-6671.3820	-6670.3316	-6672.3230	-6671.7978	-6670.6927	-6668.9310	-6668.8106	-6670.3425	-6670.2550	-6670.4629	-6669.7735	-6669.5985	-6670.0909	-6668.8435	-6668.3292	-6668.6793	-6666.1298	-6667.3116	-6668.0119	-6668.1432	-6667.5414	-6665.4624	-6664.7183	-6667.8368	-6741.0611	-6829.8670	-6829.6372	-6831.9898	-6831.2019	-6828.3023	-6826.9345	-6826.0263	-6827.5801	-6825.8731	-6825.1072	-6825.5449	-6824.6695	-6823.9036	-6825.3151	-6822.2841	-6821.5838	-6822.1419	-6821.1024	-6820.5334	-6819.7127	-6819.6580	-6819.9425	-6817.8635	-6818.8155	-6818.1261	-6817.4696	-6817.5790	-6725.9611	-6651.6863	-6648.0863	-6648.3271	-6647.6487	-6647.8019	-6648.3599	-6646.2700	-6646.1277	-6645.7010	-6646.9812	-6645.7229	-6646.4669	-6645.1758	-6646.4560	-6612.9404	-6587.2922	-6573.6365	-6577.3349	-6630.2289	-6643.3484	-6642.8232	-6641.8931	-6640.9302	-6641.1710	-6641.5320	-6640.7442	-6640.0549	-6639.4202	-6639.0920	-6636.8270	-6639.2233	-6638.8731	-6662.1360	-6771.2503	-6806.1774	-6804.0984	-6802.9057	-6801.5161	-6800.1155	-6799.5793	-6798.8790
-6855.0338	-6854.4648	-6852.4077	-6852.5390	-6852.0685	-6851.1712	-6852.7578	-6851.6745	-6851.5979	-6850.1426	-6850.5584	-6849.6831	-6849.9676	-6847.1336	-6845.6892	-6846.1160	-6847.0789	-6846.5099	-6845.5689	-6843.6978	-6843.5774	-6842.5489	-6842.1331	-6842.2862	-6843.0194	-6841.5203	-6842.1987	-6842.1659	-6841.4546	-6839.4085	-6778.6143	-6684.8298	-6672.7935	-6673.2093	-6672.4762	-6672.6732	-6672.3887	-6671.4914	-6670.9662	-6671.0209	-6668.9748	-6668.9857	-6668.3073	-6667.8915	-6669.0514	-6668.5808	-6668.4714	-6666.8629	-6666.8958	-6665.3748	-6665.4405	-6665.4733	-6665.4076	-6665.7359	-6665.5718	-6665.1341	-6663.1645	-6664.7730	-6678.7351	-6797.9052	-6831.7709	-6828.6743	-6828.7728	-6829.3418	-6827.8099	-6827.9084	-6827.2300	-6826.1139	-6825.1400	-6823.4768	-6823.9692	-6823.0610	-6822.1091	-6820.2270	-6822.5358	-6820.5553	-6819.8003	-6820.3583	-6820.8288	-6818.5091	-6819.0453	-6817.8854	-6815.4672	-6816.2879	-6816.6380	-6810.4776	-6721.7921	-6649.0821	-6645.5150	-6646.0074	-6646.5763	-6647.1891	-6646.8061	-6646.5435	-6644.8256	-6645.2305	-6645.3508	-6646.1605	-6644.6943	-6641.9588	-6644.0487	-6621.2454	-6579.7859	-6558.7224	-6559.3024	-6594.4374	-6644.0159	-6642.9655	-6641.4117	-6641.9916	-6641.2913	-6640.9302	-6641.0725	-6639.5953	-6639.3983	-6638.6543	-6637.6038	-6637.4835	-6638.3370	-6662.4205	-6781.3389	-6806.4510	-6803.4528	-6801.9100	-6801.4176	-6801.1550	-6799.8529	-6799.5903
-6853.0751	-6852.8016	-6852.5171	-6851.8387	-6852.6484	-6851.3682	-6849.0594	-6848.6874	-6850.6241	-6850.6022	-6850.1208	-6847.8776	-6848.1512	-6848.1403	-6845.4704	-6845.0436	-6846.0831	-6845.3172	-6845.1749	-6844.2449	-6844.0370	-6844.3434	-6844.2011	-6842.5489	-6841.8157	-6843.0412	-6839.5398	-6840.5793	-6839.3319	-6814.4715	-6744.6282	-6673.3735	-6672.3121	-6671.7978	-6670.8021	-6671.0647	-6669.7079	-6671.2617	-6670.2988	-6671.1522	-6669.7626	-6669.4124	-6669.0514	-6667.6398	-6667.6945	-6667.8258	-6668.4605	-6667.5304	-6667.7274	-6667.1146	-6667.7493	-6665.1232	-6665.6812	-6663.4600	-6664.9590	-6665.2326	-6664.7949	-6664.3463	-6665.6484	-6716.1023	-6816.6818	-6829.3965	-6827.5801	-6827.2518	-6827.2300	-6826.0701	-6823.6628	-6824.4288	-6823.1157	-6823.0063	-6821.5291	-6822.9516	-6822.4811	-6821.9668	-6820.9601	-6820.6428	-6819.8222	-6819.0234	-6819.4720	-6817.9182	-6817.2070	-6816.6927	-6816.2660	-6815.1390	-6816.2769	-6815.7736	-6741.5754	-6647.3642	-6646.4341	-6646.4779	-6646.1605	-6646.2481	-6645.2633	-6645.1867	-6644.7600	-6645.1539	-6643.4360	-6643.7314	-6643.0311	-6643.6876	-6642.1120	-6642.4184	-6602.5892	-6575.6498	-6568.2092	-6592.6210	-6641.8931	-6641.2038	-6641.5977	-6640.0220	-6640.3175	-6638.3151	-6638.8294	-6637.8993	-6638.3807	-6636.9254	-6638.7528	-6638.6871	-6639.2561	-6667.7711	-6793.2110	-6803.8358	-6803.2559	-6802.6212	-6800.6298	-6800.1921	-6799.6012	-6798.8243
-6853.3487	-6852.5390	-6852.6593	-6848.9828	-6847.0789	-6849.5080	-6850.0442	-6849.6065	-6848.8624	-6848.3810	-6846.2035	-6849.4752	-6845.8315	-6845.2406	-6844.9999	-6844.0041	-6843.5227	-6843.2054	-6844.8139	-6843.6759	-6842.8005	-6842.9865	-6843.0084	-6842.2315	-6841.3671	-6840.0431	-6840.3386	-6840.1307	-6839.9665	-6806.3853	-6677.0500	-6669.8392	-6671.9401	-6670.9662	-6671.1522	-6671.2069	-6670.4191	-6670.4629	-6669.4890	-6669.5766	-6668.6574	-6667.5195	-6667.5304	-6668.0009	-6666.8301	-6666.2611	-6665.7687	-6666.8629	-6667.7164	-6666.2502	-6666.7207	-6666.0861	-6665.5499	-6664.1712	-6664.1165	-6661.6655	-6663.2411	-6663.6022	-6664.6417	-6668.1869	-6786.2300	-6829.8451	-6829.3965	-6827.1424	-6827.4160	-6826.5734	-6823.4768	-6822.8203	-6822.0981	-6822.4045	-6821.7042	-6821.4088	-6820.7304	-6821.1133	-6819.0234	-6819.1766	-6818.2793	-6818.4872	-6818.1918	-6816.5833	-6815.0186	-6815.6751	-6815.8393	-6813.6180	-6813.2679	-6811.7360	-6760.3082	-6648.8961	-6646.1715	-6645.7229	-6646.0839	-6645.5368	-6644.9241	-6643.4579	-6644.7600	-6643.9393	-6644.3770	-6644.0268	-6642.4949	-6643.1734	-6642.4621	-6642.7138	-6641.1819	-6640.6457	-6636.5972	-6637.4507	-6638.0962	-6639.1686	-6640.1096	-6640.4378	-6639.1576	-6638.3807	-6634.9121	-6634.9668	-6636.1923	-6636.7613	-6634.4306	-6632.4939	-6637.0567	-6670.1127	-6779.4459	-6802.2273	-6801.6474	-6800.8158	-6798.7915	-6797.0189	-6797.0298	-6796.8657
-6852.2873	-6852.0903	-6850.5037	-6848.8953	-6847.5931	-6846.5318	-6849.0594	-6848.4795	-6846.8600	-6845.8424	-6846.3786	-6846.7834	-6846.8381	-6845.9847	-6845.3610	-6843.1288	-6842.8005	-6844.5184	-6843.0631	-6842.0893	-6842.0236	-6842.1549	-6842.4504	-6841.3562	-6841.1920	-6840.5465	-6841.2686	-6838.1392	-6838.4346	-6771.0205	-6673.6799	-6668.6137	-6668.7012	-6668.6027	-6669.7626	-6669.8282	-6667.9024	-6666.6113	-6667.9572	-6668.7231	-6668.0775	-6667.5304	-6666.5237	-6667.1037	-6667.1803	-6666.2283	-6664.4776	-6665.5061	-6663.8429	-6663.8429	-6664.6636	-6665.2982	-6664.3134	-6664.3353	-6663.5037	-6662.5955	-6661.9171	-6661.6436	-6662.7816	-6663.2411	-6704.1754	-6818.1261	-6829.5278	-6826.0373	-6825.3807	-6825.4355	-6825.0525	-6822.6890	-6822.8203	-6821.8574	-6820.8726	-6819.8222	-6818.8374	-6819.3298	-6819.0234	-6818.9906	-6818.3888	-6817.7869	-6817.1742	-6818.3012	-6816.3864	-6815.3140	-6814.3949	-6815.5766	-6815.4344	-6815.0405	-6773.2089	-6685.4645	-6646.5873	-6646.4450	-6646.1605	-6645.5259	-6645.6682	-6643.8627	-6642.3636	-6641.3460	-6644.3004	-6642.7138	-6642.2980	-6642.1339	-6642.1886	-6641.0068	-6640.8536	-6641.1600	-6640.5801	-6640.3722	-6638.6215	-6638.8950	-6638.3917	-6638.4573	-6638.0525	-6638.2057	-6636.7394	-6637.2537	-6637.2318	-6636.8379	-6636.2142	-6636.2361	-6636.6957	-6666.3924	-6794.3600	-6803.2668	-6800.6298	-6798.3429	-6799.3605	-6797.9271	-6798.1459	-6797.3143
-6851.5323	-6850.9305	-6851.2916	-6849.7378	-6848.4138	-6848.4247	-6848.8624	-6848.4685	-6848.1950	-6844.4856	-6843.8291	-6844.9999	-6844.9561	-6845.4813	-6843.4899	-6843.6978	-6843.3914	-6841.5203	-6840.9404	-6841.6954	-6841.4437	-6842.0455	-6838.8723	-6839.0583	-6838.7301	-6839.7258	-6838.7082	-6839.1459	-6838.1173	-6738.8508	-6675.9777	-6669.4890	-6668.5699	-6668.2745	-6669.7735	-6669.9814	-6670.3206	-6668.3839	-6667.8587	-6667.3663	-6668.2416	-6666.8192	-6667.0052	-6665.4952	-6666.8520	-6665.4842	-6665.4186	-6664.7730	-6665.0356	-6664.8605	-6662.4642	-6662.8581	-6661.5670	-6663.0332	-6662.5080	-6662.6940	-6660.6041	-6662.2235	-6661.4685	-6662.3220	-6692.6425	-6798.7040	-6828.0178	-6827.0877	-6824.3194	-6823.1486	-6823.4987	-6823.6519	-6823.5972	-6822.4373	-6822.3826	-6819.8988	-6819.2313	-6818.1699	-6818.0167	-6818.6295	-6818.0714	-6817.1632	-6817.0429	-6817.5462	-6814.1323	-6813.6399	-6812.9068	-6814.0995	-6812.5347	-6813.9682	-6782.0720	-6681.4597	-6644.1691	-6643.6876	-6643.6658	-6644.6287	-6643.7095	-6641.9697	-6641.0944	-6640.7114	-6640.2190	-6640.9631	-6641.7728	-6640.0877	-6640.4050	-6636.9583	-6637.3959	-6638.3479	-6639.4312	-6639.1576	-6638.5230	-6638.3041	-6638.8950	-6637.3959	-6636.0282	-6636.2142	-6636.1704	-6635.7656	-6635.9297	-6636.4440	-6635.4920	-6635.8750	-6638.8403	-6710.7297	-6799.7216	-6801.5380	-6800.3015	-6798.5070	-6797.3362	-6797.0955	-6796.9642	-6796.0669
-6848.8077	-6848.2606	-6847.6041	-6848.8843	-6847.4400	-6848.1074	-6846.5865	-6847.4290	-6845.5251	-6844.8686	-6844.4199	-6846.6412	-6845.7111	-6844.6607	-6842.0674	-6842.1768	-6841.0936	-6841.2358	-6841.6078	-6840.9185	-6838.8395	-6838.1173	-6839.0912	-6837.8766	-6837.2419	-6837.7781	-6836.8590	-6837.5046	-6821.1680	-6722.0000	-6667.7930	-6668.1979	-6668.0447	-6666.8848	-6666.0861	-6665.6484	-6668.4933	-6667.6289	-6667.8149	-6667.1256	-6665.6265	-6665.5718	-6666.9833	-6665.8344	-6666.0423	-6665.5390	-6665.2326	-6663.8976	-6664.8715	-6663.8210	-6663.1645	-6662.9566	-6662.1141	-6661.8952	-6661.7639	-6661.1950	-6661.1950	-6660.8010	-6660.0679	-6660.9105	-6660.2430	-6761.0523	-6825.5339	-6825.3370	-6823.5862	-6823.3236	-6822.2513	-6822.1747	-6821.3431	-6819.0890	-6820.3474	-6819.4501	-6819.0781	-6817.8526	-6818.7717	-6817.1851	-6817.6994	-6816.5067	-6816.2879	-6816.1456	-6815.7517	-6814.0995	-6814.0448	-6814.0666	-6813.0819	-6811.8016	-6801.2644	-6749.8038	-6647.1453	-6644.2566	-6643.0311	-6643.3484	-6642.8998	-6643.0421	-6641.8056	-6641.4336	-6640.7552	-6641.9478	-6640.7442	-6636.6738	-6635.3170	-6638.6215	-6638.7528	-6637.9540	-6638.2166	-6636.9364	-6637.5382	-6636.9583	-6637.5710	-6635.6014	-6636.3017	-6635.3607	-6635.3607	-6634.4525	-6634.3759	-6633.6866	-6633.5881	-6633.6100	-6639.8798	-6736.0497	-6799.7544	-6798.9994	-6797.9599	-6798.5070	-6796.9204	-6796.5046	-6795.6402	-6796.1107
-6848.5013	-6850.5584	-6848.8515	-6848.2716	-6847.8558	-6847.1992	-6846.9147	-6847.2102	-6844.8029	-6845.5032	-6845.1640	-6844.1902	-6841.9689	-6841.2139	-6841.5422	-6842.3847	-6842.4723	-6841.6735	-6841.1264	-6839.9775	-6839.9884	-6840.1307	-6838.7520	-6837.3623	-6836.8590	-6835.9727	-6835.4912	-6835.7319	-6804.5580	-6683.0463	-6668.8544	-6667.3991	-6666.6769	-6666.6769	-6667.0052	-6668.2416	-6666.5785	-6667.8368	-6665.6484	-6666.3049	-6665.2435	-6664.6526	-6664.9481	-6664.7730	-6663.9305	-6663.1098	-6664.7074	-6664.0727	-6663.5475	-6662.0265	-6662.1469	-6660.1445	-6661.5560	-6660.6260	-6661.6545	-6661.3263	-6660.1007	-6658.7549	-6659.4552	-6659.1269	-6661.6326	-6710.6531	-6822.3170	-6824.2756	-6822.5030	-6823.2033	-6822.8859	-6823.0938	-6821.7589	-6820.0301	-6819.6143	-6819.4283	-6818.1480	-6818.0714	-6817.4915	-6816.7474	-6816.5614	-6815.8502	-6816.4958	-6814.9858	-6814.1323	-6813.3226	-6812.3925	-6813.0600	-6812.6770	-6811.5281	-6811.1342	-6762.8906	-6659.6084	-6643.1186	-6641.8822	-6641.2476	-6641.0944	-6640.3831	-6641.3789	-6640.3284	-6638.3807	-6632.1437	-6623.4010	-6628.3359	-6640.5910	-6638.7637	-6635.1419	-6634.2665	-6637.3193	-6637.1880	-6636.7175	-6635.6452	-6612.3277	-6612.6887	-6617.7659	-6622.8320	-6636.6300	-6634.7480	-6635.4701	-6634.4635	-6634.6057	-6633.9492	-6657.8029	-6788.8561	-6798.1787	-6797.1064	-6797.3143	-6796.8438	-6796.5593	-6795.3557	-6793.5284	-6794.1302
-6798.1131	-6847.5822	-6847.8339	-6847.8120	-6846.6302	-6846.9257	-6847.3415	-6846.8819	-6845.7877	-6845.2078	-6844.5184	-6845.1421	-6844.2449	-6842.4394	-6842.5707	-6842.3847	-6841.6954	-6841.1811	-6841.9361	-6839.7805	-6839.5507	-6837.7343	-6837.0669	-6837.8438	-6836.0930	-6835.1848	-6834.1235	-6833.0183	-6777.2247	-6671.5571	-6667.4757	-6667.5304	-6665.3748	-6665.0466	-6666.3377	-6665.9657	-6664.6089	-6665.3529	-6664.5979	-6664.8387	-6663.5694	-6664.4338	-6662.8800	-6663.9742	-6662.2454	-6658.8533	-6661.1731	-6663.1426	-6661.9828	-6660.8995	-6660.8229	-6661.0089	-6660.0460	-6658.8971	-6660.5494	-6659.3786	-6660.0460	-6658.5141	-6658.8643	-6659.3786	-6660.0351	-6692.8613	-6812.9396	-6824.1115	-6822.6890	-6821.9887	-6819.8769	-6819.9097	-6820.0957	-6819.4283	-6818.3122	-6819.0015	-6818.0824	-6815.9706	-6814.1542	-6815.3687	-6814.7560	-6815.8174	-6814.2964	-6814.0885	-6811.1670	-6811.1123	-6811.3092	-6812.5347	-6812.0752	-6811.7032	-6809.8102	-6793.9004	-6713.2902	-6644.9022	-6641.2257	-6639.5078	-6639.5515	-6638.8075	-6639.4859	-6639.6062	-6627.0557	-6625.2721	-6624.6375	-6614.4176	-6615.2711	-6631.0824	-6638.1291	-6636.4221	-6633.1832	-6635.6233	-6636.2033	-6635.3607	-6609.2748	-6603.6068	-6591.3626	-6596.3851	-6613.3890	-6634.5838	-6633.4240	-6633.2817	-6633.8726	-6635.3607	-6701.4837	-6798.4414	-6798.5836	-6795.4870	-6796.5812	-6795.7058	-6795.5636	-6795.3885	-6792.7296	-6791.4603
-6750.0227	-6843.9057	-6849.6940	-6848.1950	-6847.1883	-6846.0394	-6845.1312	-6844.6169	-6846.0613	-6845.4923	-6844.3871	-6843.7525	-6841.2358	-6841.4218	-6841.3124	-6841.3233	-6839.1678	-6838.5550	-6837.8328	-6838.5331	-6838.6972	-6839.8680	-6837.2967	-6837.7781	-6838.1173	-6836.8152	-6836.5417	-6835.6225	-6763.5252	-6673.1328	-6666.2283	-6666.3268	-6667.6070	-6667.3772	-6666.9067	-6666.1955	-6666.0751	-6665.8453	-6663.6241	-6663.2192	-6664.7621	-6664.8058	-6663.5366	-6652.7367	-6598.0592	-6596.9978	-6619.8449	-6661.4576	-6662.5408	-6662.2673	-6660.4290	-6660.1664	-6659.9147	-6659.0612	-6658.7439	-6659.3567	-6658.9409	-6658.5579	-6658.1312	-6657.7920	-6659.4989	-6691.0887	-6808.3330	-6824.2428	-6823.1814	-6821.2665	-6820.5006	-6819.1547	-6820.0191	-6819.8659	-6819.1985	-6817.9182	-6817.3055	-6817.0757	-6816.1019	-6815.9706	-6814.5481	-6814.3292	-6812.6879	-6811.9439	-6811.5718	-6812.1189	-6810.4995	-6809.9415	-6810.6637	-6810.0618	-6808.9786	-6808.7597	-6772.1804	-6664.0618	-6640.7661	-6639.1467	-6639.6610	-6638.5886	-6637.8555	-6622.3506	-6620.8187	-6622.0770	-6624.3530	-6621.6175	-6618.6741	-6621.8801	-6633.5553	-6635.8641	-6635.9844	-6636.7941	-6636.1814	-6635.8203	-6616.1574	-6599.0987	-6595.7285	-6594.5030	-6596.3522	-6630.6666	-6633.4021	-6634.3978	-6635.9188	-6640.9959	-6757.1350	-6797.7739	-6798.3319	-6796.7563	-6796.4171	-6794.7101	-6794.1302	-6793.5503	-6793.1563	-6790.8913
-6706.3857	-6811.2655	-6848.5670	-6847.9980	-6845.7439	-6844.4856	-6845.7111	-6842.9647	-6844.8357	-6843.4570	-6842.8224	-6840.9732	-6841.3671	-6842.0893	-6840.5465	-6840.9513	-6838.2158	-6838.0954	-6839.1678	-6838.1283	-6837.0340	-6838.1720	-6835.9617	-6835.2943	-6834.2548	-6836.2900	-6835.5022	-6834.6706	-6789.2610	-6672.6513	-6665.6374	-6666.1517	-6666.1298	-6665.8782	-6666.4690	-6665.7469	-6664.7511	-6663.5475	-6664.5104	-6663.2083	-6663.8429	-6662.6831	-6663.0770	-6645.0445	-6574.5666	-6581.9743	-6599.5801	-6656.7853	-6662.0156	-6660.8339	-6660.5056	-6660.7901	-6658.7220	-6660.5275	-6659.5318	-6658.8533	-6657.5950	-6658.5360	-6657.1573	-6657.0370	-6657.9999	-6679.6323	-6807.0747	-6821.6823	-6819.0453	-6820.6100	-6819.7784	-6818.3559	-6817.9730	-6816.8678	-6816.7037	-6816.6818	-6817.7322	-6815.9377	-6815.4563	-6814.5262	-6815.4016	-6812.2284	-6811.0029	-6812.0205	-6812.6004	-6812.3268	-6811.1998	-6809.9962	-6809.2412	-6809.8321	-6809.6679	-6808.4643	-6794.1083	-6742.2757	-6651.9489	-6639.2123	-6638.7746	-6638.8184	-6637.9430	-6635.9406	-6620.0528	-6619.4947	-6622.3287	-6620.6217	-6621.0375	-6622.1427	-6627.3292	-6636.3127	-6636.2142	-6635.2294	-6635.1091	-6633.9930	-6630.2179	-6605.5217	-6595.7832	-6598.4969	-6611.9447	-6633.0191	-6632.1766	-6632.2203	-6636.6628	-6685.9678	-6794.6554	-6799.5793	-6797.3909	-6796.5156	-6794.5132	-6794.4584	-6792.4998	-6791.9965	-6791.9418	-6791.5697
-6679.9825	-6731.1804	-6844.2230	-6848.0855	-6847.0023	-6845.3719	-6845.5470	-6843.6649	-6843.4570	-6844.2886	-6844.2011	-6842.2315	-6842.6692	-6841.2139	-6841.4984	-6839.4632	-6839.9993	-6839.4741	-6840.0541	-6837.5812	-6837.0778	-6837.4170	-6836.4869	-6834.4955	-6833.5982	-6835.8304	-6835.3599	-6833.6639	-6791.9965	-6677.0610	-6665.1450	-6665.9985	-6665.3529	-6665.3201	-6664.4885	-6664.4885	-6663.9961	-6663.9742	-6663.5803	-6663.1645	-6663.7335	-6663.0442	-6662.1579	-6633.7851	-6582.3901	-6573.8444	-6581.9743	-6641.7837	-6661.9718	-6660.1226	-6660.2758	-6659.4005	-6659.4661	-6659.0065	-6658.6126	-6658.6783	-6658.3719	-6658.1202	-6656.8072	-6656.6540	-6656.0959	-6684.4469	-6800.5313	-6822.9625	-6820.9711	-6820.4896	-6819.6471	-6818.3012	-6818.1480	-6816.7693	-6815.9268	-6816.1785	-6815.9924	-6814.7998	-6813.7274	-6813.3335	-6813.4539	-6812.1737	-6812.5129	-6810.4886	-6811.2436	-6810.3135	-6810.4558	-6809.8102	-6809.9852	-6810.1166	-6809.4381	-6808.5737	-6807.8953	-6792.2263	-6702.7311	-6641.1491	-6636.7722	-6636.9911	-6637.3303	-6637.7680	-6631.4653	-6621.0923	-6620.6655	-6622.7883	-6621.7050	-6620.7640	-6623.9153	-6635.1747	-6636.3236	-6635.0106	-6635.0543	-6634.3540	-6635.0762	-6625.2393	-6607.9180	-6605.2810	-6612.7763	-6632.7674	-6633.7522	-6634.4744	-6669.3687	-6782.1158	-6797.7630	-6797.5113	-6794.6554	-6794.6992	-6793.1016	-6794.1849	-6792.9156	-6793.0688	-6791.0117	-6790.7381
-6678.9977	-6684.5782	-6808.4971	-6845.5251	-6846.0503	-6844.7154	-6843.4242	-6844.5184	-6842.2862	-6843.2820	-6842.4285	-6841.4984	-6841.4328	-6841.0936	-6840.0322	-6839.2334	-6838.5988	-6837.7234	-6838.2705	-6837.5264	-6837.2310	-6836.7058	-6836.2024	-6835.6553	-6835.1958	-6833.9812	-6833.0511	-6831.6505	-6789.0531	-6674.5990	-6663.8101	-6664.2259	-6664.4885	-6664.6855	-6663.0223	-6663.8101	-6662.7487	-6663.0879	-6662.0813	-6662.4752	-6661.5779	-6661.7639	-6661.3700	-6660.2758	-6660.9542	-6634.4197	-6652.0255	-6659.4333	-6660.0132	-6658.4266	-6658.7002	-6657.9233	-6657.7810	-6656.7306	-6656.5665	-6655.1549	-6657.2558	-6656.4242	-6656.3257	-6656.0194	-6657.5403	-6682.7399	-6813.4211	-6821.9121	-6820.5334	-6820.4130	-6818.1371	-6817.7432	-6816.2003	-6817.0866	-6815.0733	-6814.8982	-6813.4867	-6814.4824	-6813.2788	-6812.0752	-6811.4515	-6812.4034	-6811.7032	-6810.8059	-6810.4886	-6809.7445	-6809.4381	-6808.7926	-6808.6503	-6808.2236	-6807.4357	-6806.6041	-6807.5452	-6804.7440	-6768.0443	-6671.8744	-6637.7899	-6637.0567	-6635.8750	-6635.7218	-6628.4344	-6623.9481	-6620.7859	-6622.1865	-6616.7592	-6616.1246	-6627.2855	-6634.2993	-6634.4306	-6633.7960	-6631.6623	-6631.4325	-6631.9906	-6631.7936	-6630.8307	-6629.7365	-6630.8198	-6631.9249	-6633.8069	-6650.2748	-6735.8527	-6797.0627	-6795.7387	-6794.3928	-6794.5569	-6791.0664	-6790.0816	-6791.0664	-6792.4013	-6791.3618	-6790.6725	-6790.3114
-6678.1223	-6679.0962	-6730.8303	-6830.8846	-6845.3719	-6844.1245	-6842.6911	-6842.3191	-6841.6188	-6840.8857	-6841.5641	-6839.3647	-6837.3733	-6838.5331	-6839.1021	-6837.9969	-6838.4565	-6837.2748	-6837.2419	-6836.8371	-6835.5131	-6834.7800	-6835.0645	-6834.0250	-6833.2919	-6833.7295	-6832.7119	-6831.5521	-6787.1491	-6691.3732	-6663.7554	-6662.8800	-6661.4576	-6662.4533	-6662.5737	-6661.4138	-6661.4138	-6661.1950	-6660.1445	-6660.7573	-6660.5822	-6660.9105	-6659.6849	-6660.3634	-6659.3676	-6659.2035	-6657.9561	-6656.9494	-6656.6212	-6657.7701	-6656.7962	-6656.6868	-6657.1573	-6656.7415	-6656.4242	-6655.4066	-6654.6078	-6654.1483	-6655.8771	-6655.1330	-6656.2054	-6709.7559	-6810.6855	-6820.3693	-6819.6033	-6818.8811	-6817.4806	-6817.0866	-6815.9706	-6815.2703	-6814.5262	-6815.4672	-6812.6113	-6814.2527	-6810.9481	-6810.9700	-6810.9153	-6811.0466	-6809.6679	-6809.2193	-6808.3986	-6810.0290	-6809.7664	-6806.8668	-6806.4947	-6806.3306	-6806.0133	-6805.0723	-6806.6370	-6803.8030	-6804.7112	-6759.2469	-6684.7423	-6641.1491	-6634.9012	-6635.0981	-6635.1528	-6633.1504	-6630.7979	-6620.7859	-6620.6108	-6623.3026	-6631.2903	-6632.1437	-6631.6732	-6632.4064	-6631.3669	-6632.0672	-6631.3778	-6631.4872	-6629.8569	-6628.7626	-6628.9487	-6632.6580	-6638.5449	-6710.9814	-6793.8129	-6794.8961	-6793.8238	-6793.1016	-6793.2876	-6791.7229	-6790.9242	-6788.9546	-6789.4689	-6788.6044	-6789.5126	-6789.1187
-6676.9953	-6676.5357	-6682.0615	-6800.3015	-6845.3938	-6843.9276	-6843.9166	-6843.0084	-6840.7981	-6839.7805	-6840.2182	-6838.8285	-6837.6249	-6838.1611	-6838.4784	-6838.2486	-6835.6006	-6837.5264	-6835.4912	-6835.8742	-6834.4079	-6834.8019	-6833.3575	-6832.4384	-6831.5630	-6830.9065	-6831.5521	-6831.8584	-6827.2190	-6700.2144	-6662.8363	-6660.9980	-6662.0813	-6661.0418	-6661.3919	-6659.9585	-6660.1883	-6659.6193	-6659.4770	-6658.8862	-6660.4837	-6660.3415	-6659.3348	-6657.9999	-6657.4528	-6657.8357	-6656.4461	-6656.8619	-6655.4832	-6656.4789	-6655.6692	-6655.4613	-6654.4437	-6655.8115	-6654.0826	-6654.7172	-6653.4917	-6652.2443	-6648.7757	-6651.3580	-6656.2601	-6737.8113	-6811.2655	-6817.0757	-6819.0562	-6817.0648	-6817.2070	-6815.1937	-6814.7669	-6813.1475	-6814.6247	-6813.1694	-6812.8411	-6812.4691	-6810.4886	-6811.2655	-6809.9196	-6810.1384	-6809.9524	-6809.8868	-6806.8449	-6807.1184	-6807.6218	-6807.8078	-6805.8163	-6805.8601	-6805.4443	-6805.9257	-6806.4728	-6805.0394	-6804.7987	-6796.0122	-6763.4486	-6682.3350	-6639.4749	-6632.9425	-6632.4501	-6631.5638	-6631.3122	-6625.9505	-6622.8868	-6627.7122	-6631.3778	-6631.5857	-6631.6623	-6630.5353	-6629.7037	-6630.5462	-6629.8459	-6631.0277	-6630.3930	-6630.9729	-6630.4806	-6637.3631	-6691.6467	-6792.5217	-6796.2639	-6795.1916	-6792.9813	-6791.6463	-6791.2196	-6790.4318	-6790.1254	-6789.4470	-6789.5236	-6788.4622	-6788.5716	-6787.8166
-6674.6865	-6676.1418	-6678.1770	-6762.8687	-6843.8291	-6842.3410	-6841.7173	-6839.6164	-6840.6230	-6839.9118	-6839.3428	-6837.2638	-6838.0517	-6836.3119	-6835.8742	-6835.6116	-6836.1149	-6833.9484	-6833.3137	-6834.9332	-6833.7952	-6834.3204	-6833.1934	-6833.4232	-6832.3618	-6832.7119	-6830.5454	-6830.8080	-6823.8160	-6733.0078	-6661.5123	-6661.5451	-6660.4181	-6659.4552	-6659.8272	-6659.9366	-6660.2102	-6657.2449	-6657.3324	-6657.6060	-6657.6278	-6657.9999	-6658.9409	-6657.7591	-6657.1136	-6656.1178	-6656.6978	-6656.2491	-6655.7239	-6655.5379	-6654.7610	-6655.7567	-6654.1264	-6654.5422	-6652.9665	-6654.0607	-6654.0279	-6654.2358	-6653.6340	-6654.6188	-6657.2011	-6744.7048	-6817.6119	-6816.7693	-6815.5657	-6815.9924	-6816.7693	-6815.4344	-6815.0624	-6813.8150	-6812.0752	-6810.6199	-6811.8126	-6810.7512	-6811.6813	-6809.5804	-6808.9567	-6809.1427	-6809.6460	-6809.7883	-6808.1579	-6805.9476	-6805.6741	-6806.7354	-6806.3525	-6806.2321	-6803.0042	-6802.7635	-6801.6693	-6802.8729	-6803.1465	-6802.8729	-6798.0037	-6764.8383	-6715.1394	-6645.0992	-6634.7808	-6633.0738	-6633.0301	-6629.6599	-6629.5505	-6628.2374	-6628.9924	-6630.4258	-6631.0277	-6629.4411	-6627.8545	-6627.4824	-6627.5153	-6627.0447	-6630.2398	-6631.4216	-6647.7362	-6722.1970	-6790.7819	-6795.4104	-6794.2724	-6793.1235	-6791.1211	-6791.8433	-6790.6397	-6790.6834	-6789.2938	-6789.0421	-6788.6591	-6787.9370	-6786.6786	-6785.6173
-6675.8902	-6677.2689	-6678.7789	-6743.2933	-6836.2243	-6843.0522	-6839.9556	-6839.8899	-6838.5112	-6839.2553	-6839.2881	-6836.4979	-6837.2091	-6836.6620	-6836.5088	-6834.6158	-6834.7362	-6834.2548	-6834.6815	-6832.5916	-6833.3575	-6833.4122	-6832.2852	-6830.7971	-6830.7752	-6831.1800	-6830.4141	-6830.6439	-6829.8232	-6798.4523	-6678.0676	-6659.7397	-6659.8162	-6661.4794	-6659.6740	-6659.5099	-6658.8205	-6659.1488	-6659.7178	-6658.5470	-6655.2972	-6650.6249	-6656.5008	-6656.0631	-6655.7896	-6654.3233	-6655.1002	-6654.2249	-6654.1045	-6653.6012	-6645.0116	-6631.8264	-6633.7741	-6643.2718	-6650.8656	-6651.4893	-6652.6383	-6652.9775	-6652.7367	-6653.8856	-6673.4720	-6786.2957	-6816.0581	-6815.6204	-6815.2156	-6815.5438	-6814.2417	-6814.3840	-6813.5633	-6812.0971	-6811.9329	-6809.9852	-6809.8758	-6809.7992	-6809.8211	-6807.9828	-6808.6065	-6806.7026	-6807.6546	-6807.3482	-6806.6917	-6804.7878	-6804.1094	-6804.2735	-6804.9081	-6805.4443	-6804.2188	-6803.8577	-6802.2273	-6802.3367	-6801.8443	-6803.0370	-6801.2644	-6800.3672	-6792.5655	-6742.5493	-6693.0692	-6645.9417	-6636.1376	-6632.6580	-6629.7037	-6628.4891	-6628.5329	-6627.9529	-6629.6708	-6629.2332	-6628.9596	-6627.9967	-6630.8416	-6631.3669	-6635.8750	-6652.2225	-6758.8639	-6794.9290	-6792.4670	-6792.2700	-6791.9308	-6790.1363	-6790.0488	-6789.9284	-6788.5060	-6787.2695	-6785.8470	-6785.1577	-6786.4707	-6785.7048	-6784.7857	-6785.6391
-6672.9249	-6674.3364	-6676.3607	-6731.6947	-6836.4213	-6841.3671	-6840.3604	-6840.5246	-6838.8395	-6838.7191	-6836.9903	-6835.8851	-6836.7496	-6835.8195	-6835.1848	-6834.3970	-6833.2371	-6833.3575	-6833.4232	-6833.0621	-6832.6900	-6832.4603	-6832.1429	-6830.4688	-6830.4250	-6829.8670	-6829.7685	-6829.3746	-6829.1558	-6808.7488	-6694.7215	-6660.1117	-6657.8248	-6659.2035	-6658.6564	-6659.6959	-6658.5251	-6656.0084	-6644.5849	-6641.3023	-6640.2628	-6640.8099	-6640.4597	-6647.4517	-6655.6036	-6655.1221	-6654.9580	-6653.6340	-6653.3823	-6652.4413	-6638.5011	-6623.6527	-6610.3034	-6621.2564	-6644.5521	-6650.6359	-6650.8000	-6651.8395	-6652.9446	-6654.4656	-6715.0956	-6804.0656	-6816.1785	-6815.7517	-6813.4320	-6812.6989	-6812.2065	-6811.9986	-6811.6813	-6811.2326	-6810.0947	-6810.2697	-6809.1427	-6808.3877	-6808.0157	-6807.0418	-6805.7616	-6806.2759	-6806.0570	-6805.0832	-6804.0765	-6803.1027	-6804.2516	-6803.3653	-6803.7920	-6802.1398	-6801.6036	-6801.6364	-6801.7459	-6800.9143	-6799.9842	-6799.4152	-6797.8614	-6800.4000	-6798.7149	-6799.1745	-6786.6458	-6742.0787	-6713.6075	-6667.3444	-6640.4050	-6632.1219	-6629.8678	-6629.3973	-6628.6423	-6630.3055	-6631.6732	-6631.2246	-6645.2195	-6684.7095	-6720.5119	-6771.9506	-6792.0621	-6792.2153	-6793.3971	-6791.6354	-6791.1321	-6790.3442	-6789.7643	-6789.1953	-6789.0421	-6786.6020	-6785.9346	-6784.9279	-6784.5559	-6785.0920	-6784.4136	-6784.2823
-6672.6294	-6672.9686	-6674.7084	-6711.3753	-6823.3455	-6840.1416	-6839.0474	-6838.3799	-6836.6073	-6836.9903	-6835.4693	-6836.5964	-6835.7757	-6835.9836	-6834.8128	-6833.8280	-6833.5435	-6833.1496	-6832.7776	-6830.3813	-6830.3484	-6830.3484	-6829.5934	-6829.9655	-6830.2828	-6829.3418	-6828.3898	-6827.1315	-6826.8142	-6820.3474	-6748.7972	-6659.5865	-6658.9081	-6656.3914	-6657.2667	-6656.6212	-6656.0084	-6656.7196	-6646.4122	-6641.4336	-6640.2081	-6641.8056	-6635.2622	-6637.8446	-6643.6110	-6654.3343	-6652.4085	-6652.2881	-6651.7848	-6652.2115	-6636.9583	-6621.8035	-6601.0573	-6596.7133	-6613.0170	-6650.4608	-6652.2115	-6652.2443	-6653.1963	-6679.6214	-6763.2079	-6816.3864	-6816.3098	-6814.2636	-6812.1627	-6810.4995	-6811.7469	-6810.9372	-6809.4710	-6810.8168	-6809.1318	-6807.9172	-6807.3263	-6807.0090	-6805.9804	-6805.8054	-6805.6741	-6806.2212	-6805.2364	-6804.4814	-6802.7088	-6803.1902	-6802.1507	-6801.7021	-6800.1155	-6800.3234	-6801.4942	-6798.2225	-6798.8900	-6799.4261	-6799.4809	-6797.6207	-6796.8657	-6795.9028	-6797.5551	-6796.4608	-6796.8657	-6797.3034	-6785.4422	-6766.0528	-6736.7062	-6724.3854	-6693.6163	-6660.3415	-6651.7629	-6658.1859	-6676.2731	-6692.2267	-6746.4118	-6790.2786	-6790.8147	-6791.0883	-6789.0968	-6788.1668	-6788.9655	-6788.7467	-6788.1668	-6787.5321	-6787.0178	-6784.5340	-6787.1601	-6785.5844	-6785.1905	-6784.6981	-6784.3261	-6782.1705	-6782.9912	-6782.4441
-6672.6075	-6672.4762	-6674.1722	-6688.6377	-6809.5694	-6839.5945	-6838.6972	-6837.0888	-6837.1106	-6836.0821	-6836.1587	-6834.3970	-6832.8870	-6832.6900	-6832.3837	-6831.6177	-6830.2171	-6830.6329	-6830.2500	-6829.7576	-6828.5758	-6829.0792	-6828.0944	-6828.4008	-6827.4269	-6827.5910	-6827.7552	-6826.9783	-6823.9036	-6825.7090	-6790.0160	-6713.6622	-6658.3281	-6655.4285	-6655.4285	-6654.5312	-6655.8771	-6654.0388	-6644.6834	-6638.6981	-6643.1077	-6640.5254	-6640.8536	-6640.8646	-6642.4949	-6653.1854	-6652.3100	-6652.2553	-6651.8942	-6651.6097	-6647.8784	-6610.4784	-6604.8761	-6605.9922	-6607.6663	-6646.4122	-6649.5635	-6650.0231	-6652.9227	-6706.0903	-6798.8462	-6814.8764	-6814.7341	-6813.3335	-6813.0271	-6810.6527	-6809.3506	-6809.0223	-6809.6023	-6809.1646	-6808.2564	-6808.6175	-6806.3306	-6805.1817	-6805.0066	-6804.8096	-6803.8905	-6803.3215	-6802.7197	-6803.3762	-6802.8729	-6802.7307	-6801.4067	-6801.0456	-6800.4875	-6800.1264	-6799.5356	-6800.0717	-6798.9994	-6798.7696	-6798.5617	-6797.5003	-6797.0955	-6796.4827	-6796.6140	-6794.7867	-6796.4827	-6795.4213	-6795.7168	-6794.6116	-6793.7582	-6793.1016	-6788.8999	-6779.6210	-6787.0725	-6789.4579	-6789.8409	-6790.2239	-6789.0421	-6789.5236	-6789.2938	-6789.5455	-6787.7400	-6787.1382	-6787.0178	-6787.9807	-6784.8622	-6785.2562	-6785.1686	-6785.1905	-6783.7899	-6782.7833	-6783.2866	-6782.2252	-6782.7285	-6780.8246	-6781.3170	-6779.6429
-6670.1456	-6670.3535	-6671.3054	-6676.6780	-6780.9559	-6838.2814	-6836.3447	-6835.4256	-6834.2876	-6832.5806	-6832.6463	-6832.7338	-6832.7995	-6829.9545	-6830.7424	-6829.9983	-6831.2457	-6830.5563	-6829.2323	-6829.8013	-6829.1448	-6827.7552	-6827.2190	-6826.8360	-6826.9455	-6826.7813	-6826.2123	-6826.9673	-6825.9826	-6825.2932	-6818.8593	-6765.7136	-6686.6572	-6655.6583	-6655.1221	-6654.3014	-6654.1373	-6653.7653	-6623.0509	-6590.4107	-6595.3784	-6632.1547	-6640.2518	-6637.3959	-6639.8470	-6648.7757	-6652.3866	-6651.5878	-6651.1611	-6651.9270	-6650.4061	-6647.1782	-6625.6989	-6620.0637	-6632.9972	-6649.5964	-6649.0383	-6650.5593	-6665.2545	-6769.7184	-6815.6642	-6812.4363	-6812.1955	-6812.5676	-6810.5871	-6810.2807	-6809.0114	-6807.4467	-6808.5847	-6807.0528	-6807.2826	-6804.6893	-6805.4333	-6803.9671	-6804.7112	-6803.5404	-6803.5951	-6802.6869	-6802.6978	-6801.8225	-6801.3301	-6799.9732	-6798.9994	-6799.3714	-6799.2730	-6798.8462	-6799.1417	-6799.6778	-6798.0803	-6798.0365	-6797.6864	-6797.5879	-6796.4937	-6795.1587	-6795.6074	-6795.2353	-6794.4037	-6793.1345	-6793.3861	-6792.9813	-6792.1934	-6791.3400	-6793.0797	-6790.0816	-6790.9023	-6790.2895	-6790.3223	-6789.2391	-6789.0093	-6788.0354	-6788.1339	-6787.2367	-6786.8318	-6787.2804	-6785.4312	-6785.4312	-6785.0811	-6785.3546	-6783.0349	-6783.3741	-6782.4988	-6782.8270	-6779.9602	-6780.5182	-6779.8180	-6780.3651	-6779.9055	-6780.2119
-6669.2593	-6670.7474	-6670.6817	-6687.2699	-6817.7432	-6837.0888	-6835.7319	-6833.3575	-6833.3466	-6832.5369	-6832.3071	-6831.0816	-6830.9393	-6830.3594	-6830.8737	-6828.7618	-6828.4336	-6829.5168	-6827.0877	-6825.8403	-6825.9935	-6826.9126	-6827.1862	-6827.7880	-6826.9783	-6825.3260	-6824.5273	-6825.6543	-6823.7504	-6823.3565	-6823.1486	-6821.2665	-6762.5732	-6679.7089	-6654.2796	-6653.7981	-6652.1349	-6652.7805	-6650.8985	-6609.6140	-6589.4587	-6601.0245	-6635.9735	-6637.5491	-6641.9478	-6649.4213	-6650.8985	-6649.8152	-6650.4498	-6648.9289	-6649.0711	-6648.8195	-6648.0863	-6647.3970	-6647.8128	-6648.5787	-6648.9289	-6662.2235	-6711.1236	-6814.0885	-6812.4582	-6812.1518	-6810.2916	-6809.2521	-6809.3944	-6809.5038	-6808.1032	-6807.5670	-6806.4510	-6806.1336	-6803.2449	-6803.3762	-6805.2364	-6803.7811	-6802.7963	-6801.9428	-6802.1835	-6802.3477	-6802.2383	-6800.1921	-6800.5860	-6800.4438	-6799.8967	-6797.8724	-6798.2006	-6797.9709	-6797.0079	-6796.9642	-6796.4390	-6796.5703	-6795.9466	-6796.4827	-6793.7034	-6794.6335	-6792.0621	-6792.4779	-6792.4889	-6792.3576	-6792.6092	-6792.6968	-6790.7491	-6790.8038	-6789.5455	-6789.9831	-6789.6549	-6787.9260	-6786.9741	-6787.1054	-6788.3199	-6787.1163	-6787.6744	-6785.2452	-6785.2671	-6784.8732	-6786.0987	-6783.8665	-6783.3522	-6782.3456	-6782.3675	-6782.8380	-6781.9517	-6781.5796	-6779.5772	-6779.4897	-6778.8660	-6778.7566	-6778.1438	-6779.1286
-6667.8368	-6667.6289	-6668.3182	-6706.5280	-6811.3421	-6836.8590	-6834.8675	-6834.5611	-6831.8037	-6832.5916	-6830.5016	-6830.9284	-6829.8889	-6830.6439	-6830.0421	-6829.8889	-6829.4621	-6828.2585	-6827.1862	-6824.7461	-6826.4093	-6826.2014	-6826.8579	-6824.6695	-6824.6914	-6823.9145	-6823.3346	-6823.1814	-6823.3565	-6821.9449	-6822.7656	-6822.5905	-6810.2807	-6754.0713	-6678.2536	-6653.1854	-6650.4498	-6651.1830	-6650.0012	-6640.7989	-6632.8769	-6634.0258	-6634.3212	-6635.8312	-6646.7842	-6648.1301	-6645.4821	-6646.6420	-6647.4298	-6647.5064	-6647.8019	-6647.2000	-6647.5392	-6647.1453	-6647.9003	-6648.8195	-6651.7082	-6700.0940	-6802.2930	-6812.4910	-6811.1451	-6809.7773	-6809.3287	-6808.8801	-6808.6722	-6806.9215	-6806.0352	-6807.2935	-6805.5318	-6805.3130	-6802.8291	-6803.1027	-6803.1355	-6802.6322	-6802.6759	-6801.9319	-6801.9975	-6801.5489	-6801.1112	-6799.9842	-6798.9338	-6799.5356	-6798.9009	-6797.7848	-6797.6973	-6795.2134	-6794.3490	-6792.4123	-6793.7253	-6795.3119	-6795.4213	-6794.2834	-6793.3314	-6792.0950	-6792.5874	-6792.5983	-6791.4713	-6791.4275	-6791.0226	-6790.5959	-6789.0859	-6789.0968	-6788.1996	-6788.3309	-6788.1120	-6787.2914	-6785.8252	-6786.9850	-6786.7333	-6785.9674	-6785.2343	-6785.1796	-6785.4641	-6784.1291	-6783.9103	-6783.1772	-6782.5316	-6781.0106	-6781.1967	-6779.5444	-6780.2119	-6779.2927	-6779.6101	-6778.6362	-6778.4064	-6777.3560	-6777.5967	-6777.2685
-6667.6179	-6666.9505	-6669.3468	-6702.3043	-6822.9844	-6834.3642	-6834.4736	-6833.2371	-6832.4165	-6830.5892	-6829.6044	-6830.9284	-6829.9545	-6828.1710	-6826.9783	-6827.0330	-6825.8403	-6826.2780	-6824.7133	-6824.8118	-6823.6628	-6823.6410	-6823.6300	-6823.6191	-6822.9188	-6822.8094	-6823.3346	-6821.9668	-6822.2513	-6820.5443	-6820.3146	-6819.1109	-6820.0410	-6808.4096	-6767.9239	-6678.0567	-6652.9884	-6650.3404	-6649.9903	-6647.7800	-6643.2828	-6641.4883	-6638.2494	-6638.3479	-6644.3660	-6648.4474	-6647.0140	-6647.6377	-6646.9484	-6647.8894	-6645.9636	-6645.2305	-6644.5083	-6646.0183	-6646.2918	-6653.0759	-6696.3628	-6808.5737	-6812.3268	-6811.1123	-6811.2108	-6808.8144	-6809.0223	-6808.5190	-6807.5670	-6805.8710	-6805.7725	-6804.8972	-6803.9562	-6803.9452	-6803.7373	-6803.3543	-6803.1246	-6802.7088	-6801.2097	-6801.0127	-6798.5727	-6799.2292	-6799.4809	-6800.0280	-6797.8286	-6797.8724	-6797.5003	-6799.1635	-6797.1174	-6795.2791	-6795.0055	-6794.5132	-6794.3162	-6792.3685	-6792.7405	-6792.4560	-6793.6378	-6793.1345	-6792.1716	-6790.3114	-6789.2828	-6789.8737	-6789.5892	-6788.6920	-6788.0136	-6787.2476	-6788.1449	-6786.8209	-6786.3175	-6784.6325	-6785.0592	-6784.9717	-6784.6325	-6784.8732	-6784.1729	-6784.4136	-6781.7000	-6781.6453	-6781.5140	-6781.9517	-6781.9298	-6781.1967	-6781.1310	-6780.2119	-6780.7043	-6779.5444	-6779.3365	-6778.0891	-6778.0016	-6776.3384	-6775.9663	-6776.1524
-6665.9219	-6665.4952	-6669.0842	-6744.6064	-6828.7837	-6833.9593	-6832.9636	-6830.9721	-6830.9065	-6829.4184	-6829.1229	-6828.6634	-6829.1229	-6827.6348	-6826.4312	-6825.9826	-6826.2233	-6826.2342	-6826.1029	-6826.0701	-6823.0938	-6823.6191	-6821.7261	-6823.4987	-6821.2337	-6820.3036	-6820.5115	-6819.8878	-6819.5048	-6819.6799	-6819.5486	-6817.3383	-6817.4806	-6815.9268	-6813.3992	-6769.1932	-6677.6847	-6660.2868	-6650.0997	-6648.9179	-6648.5350	-6647.4736	-6643.5563	-6646.4779	-6646.4888	-6646.4450	-6645.5697	-6646.3575	-6645.5587	-6646.2043	-6645.0663	-6646.0621	-6645.7557	-6647.2548	-6652.0146	-6702.0636	-6800.7501	-6812.3268	-6810.0509	-6808.6175	-6807.1512	-6807.8187	-6807.2826	-6806.6260	-6806.1118	-6804.7331	-6803.9015	-6802.0304	-6802.5337	-6800.9580	-6800.4547	-6800.8814	-6802.5993	-6801.6474	-6799.7216	-6798.8900	-6799.3933	-6798.9775	-6798.8462	-6798.8681	-6797.7301	-6795.6621	-6794.2287	-6795.3557	-6793.5940	-6794.4366	-6793.7910	-6793.0469	-6792.3685	-6793.7582	-6793.2876	-6791.8980	-6790.9460	-6789.0312	-6791.1430	-6790.4208	-6790.5740	-6789.2172	-6788.9546	-6787.9151	-6787.2476	-6786.1425	-6786.8099	-6786.0221	-6786.1862	-6784.8732	-6783.4507	-6784.1510	-6783.3413	-6783.6039	-6782.6848	-6783.2100	-6782.5097	-6782.3346	-6779.9274	-6779.9164	-6780.1462	-6780.3103	-6778.3627	-6778.4940	-6777.2028	-6777.8374	-6777.3341	-6777.2575	-6776.4478	-6775.1785	-6773.7232	-6772.3664
-6663.3396	-6666.3377	-6670.8896	-6746.8823	-6833.3685	-6831.8913	-6831.1800	-6830.1843	-6829.0792	-6828.0615	-6828.1710	-6827.4597	-6827.7552	-6825.5996	-6826.3436	-6824.6039	-6823.6847	-6824.3850	-6822.8094	-6822.5030	-6822.8969	-6821.8793	-6819.8222	-6820.8835	-6819.6690	-6820.1395	-6819.5705	-6819.3079	-6818.3450	-6819.1766	-6815.3797	-6817.6885	-6817.6447	-6817.3274	-6816.4520	-6810.5433	-6775.4083	-6731.2133	-6662.6502	-6650.0012	-6647.0469	-6646.1387	-6646.7624	-6645.5478	-6645.8104	-6643.5892	-6645.4821	-6645.1101	-6644.8147	-6643.6986	-6643.1296	-6644.2238	-6647.1453	-6660.4728	-6706.2653	-6796.1107	-6806.9543	-6807.0747	-6807.8625	-6807.7859	-6806.3634	-6805.2473	-6804.3173	-6803.9343	-6802.8510	-6804.1312	-6803.7045	-6803.7373	-6801.7130	-6801.2097	-6800.8924	-6800.7501	-6800.8705	-6798.4085	-6799.2948	-6798.2225	-6798.5398	-6797.8724	-6798.5398	-6797.8833	-6795.7168	-6794.8961	-6796.2639	-6796.0232	-6793.8019	-6793.4299	-6793.3095	-6792.7843	-6793.1235	-6792.0402	-6790.1363	-6791.0773	-6789.9175	-6789.2500	-6788.4731	-6789.1625	-6788.2433	-6787.8604	-6787.0397	-6787.0288	-6786.7443	-6786.0987	-6785.4969	-6784.7200	-6784.5449	-6783.5492	-6784.4574	-6783.0896	-6783.2647	-6781.6015	-6781.0106	-6781.2514	-6781.8204	-6780.9450	-6780.3213	-6780.0040	-6778.7347	-6778.8113	-6778.3298	-6776.8308	-6776.0648	-6777.1809	-6775.8132	-6776.5134	-6774.0187	-6774.2922	-6772.7494	-6772.2132
-6664.8168	-6665.3092	-6685.2347	-6814.0448	-6830.5782	-6829.8232	-6829.1667	-6829.0026	-6827.7771	-6827.0330	-6827.4050	-6826.8689	-6826.3984	-6824.9212	-6824.8227	-6823.6519	-6823.8379	-6821.9449	-6821.8355	-6821.9778	-6822.5686	-6820.8179	-6820.5662	-6820.1942	-6818.9687	-6818.2793	-6817.1961	-6818.5967	-6816.1894	-6817.0648	-6816.5614	-6816.9553	-6815.2265	-6815.4782	-6813.5742	-6812.8192	-6812.5129	-6803.4857	-6759.1046	-6730.2723	-6679.5120	-6667.8040	-6649.6182	-6645.5587	-6645.4274	-6644.3332	-6644.4755	-6642.6919	-6645.9745	-6647.1891	-6651.3143	-6658.9299	-6676.2731	-6761.2055	-6810.1931	-6809.0114	-6807.6984	-6805.4443	-6804.6127	-6805.7069	-6805.3130	-6804.9847	-6804.3720	-6803.9233	-6802.6650	-6802.5775	-6800.9471	-6801.6583	-6800.1264	-6800.6845	-6799.0103	-6798.5727	-6798.6602	-6799.0869	-6798.5508	-6797.4675	-6797.6535	-6795.3448	-6797.0189	-6796.0232	-6795.1259	-6794.6773	-6795.3557	-6794.0426	-6792.8281	-6791.6244	-6792.8609	-6792.1606	-6791.6573	-6790.5740	-6789.5564	-6788.7357	-6787.7838	-6788.4731	-6786.8865	-6788.3528	-6788.1777	-6788.5716	-6787.1929	-6786.5583	-6785.4312	-6783.8665	-6784.3261	-6784.7200	-6784.1729	-6783.3741	-6782.8598	-6782.7285	-6779.8727	-6778.9316	-6779.7742	-6778.0563	-6777.9906	-6776.6448	-6777.1919	-6776.5025	-6778.0782	-6777.0824	-6776.2508	-6774.2047	-6774.7518	-6775.4849	-6774.5986	-6773.5263	-6771.9615	-6772.6947	-6772.0710	-6772.1585
-6663.3287	-6665.4186	-6755.1764	-6825.7199	-6830.0421	-6828.8166	-6827.1096	-6828.0725	-6826.9564	-6826.5078	-6825.0744	-6824.8008	-6823.5862	-6823.8926	-6824.9431	-6823.2689	-6821.0914	-6821.3322	-6821.1571	-6821.9668	-6822.4264	-6819.9754	-6819.2751	-6819.5924	-6819.3845	-6815.8830	-6816.9335	-6816.9553	-6816.8131	-6814.5043	-6813.3554	-6814.6356	-6812.3597	-6814.0338	-6812.5566	-6813.5524	-6812.8192	-6812.3268	-6811.5718	-6808.6503	-6787.8604	-6756.7630	-6698.2010	-6689.4255	-6669.7845	-6669.6313	-6655.4941	-6661.1293	-6674.6209	-6698.2776	-6749.5631	-6779.4350	-6806.5713	-6805.7397	-6805.4881	-6804.5689	-6804.1641	-6804.7221	-6804.4814	-6802.7854	-6803.2012	-6802.8401	-6802.3039	-6800.9909	-6801.3738	-6801.0127	-6799.8201	-6797.6645	-6795.8481	-6796.4390	-6797.5660	-6796.5703	-6795.9794	-6796.5374	-6795.0165	-6796.2639	-6794.2834	-6794.9508	-6793.5831	-6793.8238	-6794.3053	-6793.3752	-6793.6378	-6792.1825	-6792.6749	-6791.6901	-6790.1582	-6788.3856	-6787.9041	-6787.4993	-6787.5649	-6787.6306	-6787.3023	-6786.8756	-6786.0659	-6785.3765	-6784.5887	-6785.4094	-6783.3741	-6783.1991	-6782.8708	-6783.9869	-6783.7571	-6782.9474	-6781.3389	-6781.9954	-6781.7656	-6781.2951	-6780.4745	-6779.1286	-6778.0891	-6778.7894	-6778.5377	-6777.9687	-6777.5967	-6775.8241	-6775.7366	-6775.6162	-6776.6119	-6774.9816	-6774.2266	-6773.9311	-6773.8873	-6772.8479	-6772.1257	-6770.1342	-6770.5500	-6768.9853
-6663.3177	-6680.7703	-6797.4785	-6828.7509	-6827.0439	-6825.4245	-6825.3917	-6825.2166	-6824.2975	-6824.4507	-6822.7875	-6823.8598	-6820.0520	-6821.8027	-6821.4416	-6820.7741	-6819.6362	-6820.4349	-6819.8331	-6818.5967	-6818.1371	-6817.7760	-6819.0890	-6817.6447	-6818.0277	-6815.5438	-6815.5329	-6815.2812	-6816.4411	-6814.3183	-6812.0205	-6810.7950	-6814.2964	-6813.3116	-6811.7360	-6811.3311	-6810.6089	-6810.2588	-6810.7512	-6810.9153	-6810.0071	-6810.2150	-6805.4224	-6793.4518	-6789.3376	-6784.5121	-6789.3266	-6790.2786	-6789.3376	-6806.2649	-6805.2802	-6803.2449	-6803.7701	-6802.8401	-6803.2121	-6801.4067	-6801.2097	-6799.9185	-6802.4462	-6799.7106	-6801.3957	-6799.6888	-6800.6626	-6799.6669	-6798.6602	-6798.4961	-6796.0560	-6796.5921	-6796.0013	-6795.3995	-6794.5679	-6795.4323	-6794.7976	-6795.7824	-6794.7320	-6794.6992	-6792.6749	-6792.4779	-6791.9199	-6793.4080	-6790.9132	-6791.2196	-6790.4318	-6791.2415	-6789.3813	-6789.3923	-6789.4360	-6788.1230	-6787.9041	-6787.7072	-6787.6087	-6786.4488	-6785.5735	-6784.8294	-6784.5559	-6785.2890	-6784.7966	-6783.3851	-6783.1772	-6781.6234	-6781.3936	-6781.6781	-6780.6386	-6780.4417	-6780.5073	-6779.6319	-6778.3955	-6779.0192	-6779.1395	-6777.9359	-6775.3974	-6778.0344	-6777.1043	-6776.7213	-6775.4630	-6775.4740	-6774.6205	-6774.7737	-6775.0472	-6774.6205	-6773.4387	-6770.9220	-6771.4473	-6771.3597	-6771.4473	-6769.4668	-6768.8649	-6768.2084
-6671.4367	-6725.8188	-6828.5102	-6827.3613	-6827.3394	-6825.0087	-6824.0567	-6822.5358	-6823.4878	-6821.8246	-6821.4854	-6820.4896	-6820.0191	-6819.9316	-6820.5991	-6821.7261	-6818.2684	-6820.0191	-6818.2793	-6817.3711	-6817.9073	-6818.4544	-6817.2398	-6815.9706	-6816.1894	-6815.8393	-6815.0077	-6814.3730	-6814.0557	-6814.0229	-6812.9068	-6812.6989	-6812.9615	-6810.4995	-6809.8539	-6808.4315	-6810.1384	-6810.2041	-6810.8934	-6809.1974	-6808.8144	-6807.9391	-6807.8625	-6806.8011	-6806.5604	-6804.7987	-6803.9562	-6804.1094	-6802.4790	-6803.4091	-6803.3434	-6805.2254	-6803.8796	-6803.0480	-6801.8334	-6802.2054	-6800.8048	-6799.8967	-6800.0608	-6800.4109	-6799.0979	-6799.3386	-6797.8724	-6797.1393	-6798.3648	-6796.2092	-6796.2092	-6794.8524	-6795.1916	-6794.8305	-6794.6226	-6794.4803	-6792.6311	-6791.7667	-6791.5260	-6792.2372	-6789.5126	-6789.2172	-6791.7229	-6791.0555	-6790.6287	-6790.9242	-6789.1625	-6790.5631	-6788.5935	-6789.4251	-6788.1558	-6787.6087	-6787.5212	-6787.0616	-6786.4598	-6784.9279	-6784.0088	-6783.7571	-6782.6191	-6781.2951	-6783.4835	-6782.3784	-6782.4003	-6780.4854	-6780.1572	-6779.7961	-6779.7632	-6778.3736	-6778.1329	-6777.0168	-6777.5748	-6777.3669	-6776.7651	-6776.5025	-6775.5834	-6775.2989	-6774.9378	-6775.3536	-6774.6205	-6774.4235	-6773.0448	-6773.6138	-6772.9463	-6771.8740	-6771.1081	-6771.4692	-6770.6376	-6770.8455	-6770.0139	-6768.4491	-6768.8431	-6768.0990
-6726.5191	-6809.8868	-6824.8883	-6823.5753	-6822.9954	-6822.4811	-6821.8465	-6820.5553	-6821.2118	-6819.7675	-6821.2446	-6820.7304	-6821.5291	-6820.0082	-6819.9863	-6818.7717	-6819.5158	-6817.9730	-6817.3930	-6817.7432	-6816.0581	-6815.0186	-6814.0448	-6814.4168	-6813.0928	-6813.2460	-6812.3925	-6814.7122	-6813.3335	-6813.0709	-6811.3311	-6810.3682	-6810.4339	-6811.5718	-6811.4077	-6810.1494	-6809.0005	-6808.7160	-6807.9391	-6807.1403	-6807.3482	-6806.2978	-6807.5780	-6805.3567	-6805.2036	-6805.8382	-6805.6960	-6804.6455	-6804.3720	-6803.5513	-6803.3762	-6802.5775	-6800.6845	-6801.5161	-6801.3410	-6798.9666	-6798.2116	-6798.8572	-6798.2444	-6799.1088	-6798.3648	-6797.4675	-6795.6511	-6795.3119	-6794.5132	-6795.0821	-6794.4366	-6793.7800	-6794.9290	-6794.6226	-6793.3861	-6793.2767	-6793.8019	-6792.9047	-6792.7624	-6791.3181	-6791.8433	-6790.3442	-6789.7643	-6787.7838	-6788.4622	-6788.3090	-6786.5364	-6786.8756	-6787.0944	-6785.7267	-6786.6458	-6784.8622	-6785.1905	-6785.5516	-6783.3413	-6784.2714	-6783.7899	-6784.1729	-6781.1638	-6782.6301	-6779.6976	-6779.2708	-6779.7195	-6780.0477	-6779.9164	-6780.1134	-6778.2532	-6778.4502	-6777.4873	-6775.9007	-6776.3493	-6773.3402	-6776.4040	-6774.9159	-6775.4740	-6774.5110	-6775.3317	-6773.5263	-6773.7123	-6772.1476	-6772.0819	-6771.2613	-6770.3421	-6770.8673	-6769.0181	-6767.6285	-6767.2017	-6769.2370	-6768.2850	-6767.8583	-6767.1033	-6766.0200
-6765.6370	-6825.1072	-6824.8883	-6825.4026	-6823.7723	-6823.0829	-6822.2294	-6822.0653	-6821.5838	-6820.5006	-6819.5596	-6817.8854	-6818.6623	-6818.8264	-6818.4106	-6816.6380	-6817.5243	-6815.4563	-6816.2113	-6815.4344	-6814.3730	-6812.6661	-6812.6004	-6811.5281	-6811.2874	-6810.7293	-6811.9439	-6812.4253	-6811.9658	-6810.7621	-6810.3244	-6810.8387	-6810.1275	-6809.4163	-6808.4534	-6809.5366	-6807.9391	-6807.9500	-6807.7312	-6807.3263	-6804.6455	-6804.1531	-6805.6850	-6805.2145	-6803.8139	-6802.3477	-6803.8249	-6802.2711	-6802.8401	-6802.0194	-6801.9428	-6800.7064	-6799.9514	-6798.3648	-6798.4523	-6798.2006	-6798.5508	-6797.7411	-6798.3538	-6795.9685	-6794.7539	-6795.7387	-6795.6621	-6795.4542	-6794.2287	-6793.9989	-6792.5436	-6793.4627	-6792.4451	-6793.4080	-6791.1211	-6790.6506	-6791.4822	-6790.9679	-6789.8081	-6788.5716	-6790.4208	-6790.3005	-6790.2786	-6789.2828	-6787.9589	-6786.4160	-6787.0178	-6785.7923	-6784.6653	-6782.5754	-6785.9346	-6784.5996	-6784.4464	-6784.1401	-6783.5492	-6783.3960	-6782.9474	-6783.4179	-6781.7438	-6781.3936	-6780.0915	-6780.9012	-6778.1766	-6778.5049	-6778.4283	-6778.9098	-6776.6776	-6777.8374	-6777.4216	-6775.0800	-6774.2375	-6775.0910	-6774.2922	-6774.3360	-6774.3469	-6773.2527	-6773.7889	-6773.1542	-6773.0886	-6770.9768	-6770.8017	-6768.7227	-6768.0771	-6769.4886	-6768.7993	-6769.0072	-6767.5081	-6767.8036	-6766.3592	-6767.1033	-6764.7726	-6765.1009
-6814.2745	-6823.8270	-6822.9188	-6822.4920	-6821.0258	-6822.0762	-6820.5662	-6820.7413	-6819.7127	-6819.4173	-6818.8046	-6818.4106	-6816.7146	-6817.1195	-6815.4344	-6814.5043	-6815.1499	-6815.0186	-6815.0624	-6811.9986	-6812.0642	-6811.0029	-6811.9548	-6811.3858	-6809.8758	-6810.2479	-6810.2807	-6809.1646	-6810.6308	-6811.1342	-6808.1142	-6808.5737	-6809.0114	-6809.6023	-6809.2521	-6807.0528	-6805.1160	-6804.8644	-6805.1051	-6805.7397	-6803.7045	-6804.2297	-6803.7483	-6803.5075	-6801.7896	-6801.4395	-6800.9033	-6800.2030	-6799.2292	-6799.4809	-6800.9143	-6799.8201	-6799.6559	-6798.2991	-6798.3101	-6797.0955	-6797.7958	-6795.6183	-6795.9356	-6796.1654	-6795.9794	-6795.8153	-6795.4761	-6794.0098	-6792.7624	-6792.8937	-6792.1278	-6792.6968	-6792.1825	-6792.3904	-6791.8433	-6791.9199	-6791.0336	-6789.8847	-6787.6525	-6789.6330	-6789.4032	-6788.0683	-6786.7005	-6786.1753	-6787.0616	-6786.9850	-6786.0440	-6785.0592	-6785.9127	-6784.8404	-6783.5383	-6782.5316	-6782.1814	-6782.1596	-6783.0787	-6780.3213	-6779.6866	-6779.9274	-6780.0040	-6780.5401	-6779.5006	-6779.2380	-6779.2818	-6779.1614	-6778.7456	-6777.5092	-6775.0253	-6776.1086	-6774.2156	-6774.3907	-6774.5658	-6774.4016	-6773.5919	-6772.7603	-6772.2460	-6773.2199	-6772.1476	-6771.4692	-6770.9877	-6768.9306	-6769.9701	-6768.7336	-6768.2741	-6766.8407	-6767.2674	-6767.2346	-6767.3440	-6766.7094	-6766.5452	-6765.7464	-6765.1993	-6763.0219
-6823.3674	-6820.3693	-6819.8441	-6819.1328	-6821.0258	-6819.0343	-6817.9511	-6818.3450	-6816.8022	-6816.5724	-6815.7955	-6816.9663	-6816.2113	-6815.3140	-6814.1651	-6814.2964	-6813.4101	-6814.4934	-6813.2898	-6812.3268	-6811.4953	-6811.8235	-6812.2393	-6811.2545	-6812.1518	-6810.8825	-6811.0357	-6808.2564	-6807.7202	-6807.7859	-6808.3002	-6806.6151	-6806.5932	-6805.1270	-6806.1883	-6806.5385	-6806.2212	-6804.9191	-6803.8796	-6803.9124	-6803.2887	-6803.3215	-6802.7744	-6802.2383	-6802.4243	-6802.1945	-6799.1854	-6801.2425	-6799.7325	-6799.6231	-6798.1897	-6797.8724	-6798.1022	-6798.2116	-6797.8724	-6797.3143	-6795.3010	-6794.0426	-6794.1849	-6795.2463	-6794.9290	-6792.2591	-6793.3205	-6792.5874	-6793.2658	-6790.3223	-6789.9503	-6790.1363	-6789.0749	-6789.6330	-6788.3199	-6788.6810	-6787.7400	-6788.6263	-6787.6306	-6787.7291	-6786.2191	-6787.0069	-6787.4774	-6787.0288	-6785.6938	-6785.9127	-6785.3984	-6785.4422	-6784.9498	-6784.4464	-6783.9212	-6782.8708	-6782.1267	-6781.9517	-6782.3675	-6781.0872	-6781.3936	-6779.4787	-6779.6319	-6778.8988	-6779.1833	-6778.2423	-6777.7280	-6777.2575	-6776.0976	-6775.4630	-6776.3493	-6776.4040	-6775.2770	-6775.7366	-6773.1980	-6774.0296	-6772.9244	-6773.8655	-6772.6509	-6771.8850	-6771.7974	-6771.4363	-6770.6157	-6769.0510	-6767.7707	-6768.3178	-6768.0662	-6767.3987	-6768.5148	-6767.1251	-6767.3878	-6765.7793	-6764.6085	-6762.8796	-6763.6456	-6762.4529
-6820.4349	-6819.3845	-6819.6362	-6819.2860	-6819.3079	-6818.8155	-6818.4544	-6818.0496	-6817.2945	-6815.2265	-6815.0295	-6814.3183	-6815.3578	-6815.3250	-6815.2484	-6813.3992	-6812.2174	-6812.5457	-6812.0642	-6812.5019	-6812.0314	-6810.5323	-6808.8473	-6809.1318	-6808.5190	-6806.9981	-6807.2935	-6809.9415	-6809.2084	-6806.8558	-6806.2102	-6805.8163	-6806.9543	-6804.6783	-6805.7835	-6804.8534	-6804.3829	-6804.0218	-6804.1422	-6801.5161	-6802.3039	-6802.3805	-6801.9319	-6800.5422	-6801.3520	-6800.5422	-6799.7325	-6799.8748	-6798.9228	-6796.9642	-6796.3405	-6797.9380	-6797.3690	-6797.6207	-6797.1830	-6797.1283	-6795.3119	-6792.6530	-6792.1497	-6793.0031	-6794.6116	-6791.5260	-6791.1321	-6790.2129	-6792.0840	-6791.1977	-6791.0117	-6789.5017	-6789.4798	-6788.9108	-6787.8385	-6786.7771	-6787.0178	-6788.3528	-6787.9151	-6787.9917	-6785.9674	-6786.3723	-6785.2671	-6784.3042	-6784.0088	-6785.3546	-6783.0896	-6782.3456	-6781.2076	-6781.1091	-6781.2404	-6782.4222	-6781.3717	-6780.7590	-6778.9864	-6779.0411	-6779.2161	-6778.1876	-6778.2970	-6777.0277	-6777.5529	-6777.0387	-6777.5311	-6775.0800	-6776.2180	-6775.1676	-6775.6271	-6773.4716	-6772.1476	-6772.6290	-6772.4211	-6770.7360	-6770.6157	-6772.4321	-6769.3464	-6770.4625	-6770.0029	-6768.6570	-6768.3288	-6768.9634	-6767.7817	-6768.1537	-6767.3878	-6765.6917	-6765.3088	-6767.0376	-6765.9543	-6765.0462	-6764.2255	-6762.7811	-6762.2231	-6760.1550
-6819.8222	-6817.9292	-6816.8897	-6816.6161	-6816.1347	-6815.5657	-6816.7474	-6815.9487	-6816.8131	-6815.3687	-6816.1675	-6812.9177	-6812.6332	-6811.9767	-6813.5961	-6811.7360	-6811.9548	-6811.4296	-6810.6308	-6810.4448	-6809.5147	-6811.1342	-6810.8606	-6810.7512	-6809.2959	-6809.4819	-6808.1689	-6807.2826	-6805.9148	-6805.7507	-6805.8273	-6804.3720	-6803.4200	-6805.2145	-6805.3567	-6802.5556	-6804.0437	-6801.5708	-6803.0261	-6802.2273	-6800.9143	-6801.6583	-6802.6103	-6800.2359	-6800.1046	-6799.7106	-6799.8091	-6799.8419	-6797.0845	-6798.0365	-6797.7958	-6798.2444	-6795.4323	-6796.2529	-6794.3490	-6793.7800	-6793.0141	-6792.1934	-6792.1497	-6792.9594	-6792.3247	-6792.6968	-6790.8913	-6791.1102	-6789.8409	-6789.0859	-6788.5935	-6786.7552	-6788.4841	-6788.0683	-6786.9741	-6786.6786	-6787.0397	-6785.0483	-6784.7419	-6784.7528	-6785.4641	-6784.5887	-6785.0154	-6785.0920	-6783.2428	-6782.1924	-6783.3632	-6783.1225	-6781.3389	-6781.8860	-6781.3170	-6780.4635	-6779.6101	-6779.8289	-6778.5706	-6778.5049	-6776.5572	-6776.5353	-6775.0910	-6774.8940	-6774.3688	-6775.2661	-6776.1195	-6774.0624	-6773.9749	-6773.1323	-6774.1390	-6770.8345	-6770.8673	-6770.9549	-6772.4102	-6771.7099	-6771.4254	-6770.5938	-6770.8455	-6770.5391	-6769.4777	-6769.1932	-6766.4030	-6767.8145	-6766.6984	-6767.6941	-6766.6656	-6765.9653	-6764.1708	-6764.7507	-6764.2802	-6762.9890	-6761.5009	-6762.5514	-6761.5447	-6760.3411
-6818.8155	-6818.7608	-6817.0648	-6816.8350	-6815.9049	-6814.5153	-6814.1651	-6813.2679	-6813.2241	-6812.2612	-6811.8235	-6811.7579	-6812.7645	-6812.7864	-6812.9615	-6809.6570	-6810.5980	-6809.3506	-6810.7950	-6810.2697	-6810.3901	-6809.7117	-6808.1032	-6806.9215	-6806.8011	-6807.7202	-6807.6108	-6807.6546	-6806.7683	-6806.6479	-6805.2583	-6805.0613	-6804.7112	-6805.3677	-6804.4814	-6804.5580	-6802.8291	-6802.2930	-6801.8115	-6801.1769	-6800.8705	-6800.5313	-6799.2839	-6797.6535	-6797.6754	-6796.9423	-6798.4961	-6796.6469	-6795.7824	-6794.7539	-6796.7672	-6794.9618	-6796.0122	-6794.4694	-6793.5503	-6793.5065	-6792.5983	-6793.0141	-6792.0402	-6790.6725	-6789.2500	-6790.3661	-6790.6944	-6790.7053	-6789.3157	-6790.5412	-6788.8999	-6789.0093	-6787.2476	-6786.7990	-6786.5254	-6785.2015	-6784.4355	-6783.8665	-6784.6325	-6784.2057	-6782.0830	-6782.0611	-6782.7067	-6781.8204	-6783.1334	-6781.6234	-6781.7766	-6778.2861	-6778.1000	-6778.3517	-6779.4131	-6779.3803	-6778.9864	-6778.4611	-6778.6472	-6777.3341	-6776.3931	-6777.0496	-6775.9663	-6776.1524	-6775.6709	-6775.0582	-6773.0229	-6774.6861	-6773.1433	-6771.3269	-6770.4078	-6770.9986	-6771.3050	-6769.2917	-6768.8102	-6770.0467	-6769.1166	-6767.8802	-6769.0510	-6768.3069	-6767.9896	-6767.0595	-6766.9501	-6766.3811	-6766.5343	-6765.5823	-6764.3568	-6764.1270	-6763.3392	-6761.8839	-6762.1137	-6762.5076	-6760.9757	-6761.8401	-6761.9277	-6761.2930
-6817.8745	-6818.3231	-6814.9311	-6815.9158	-6815.5000	-6815.0405	-6813.9134	-6814.5590	-6811.7797	-6811.5718	-6810.7402	-6810.4667	-6809.6460	-6809.6351	-6809.2959	-6808.5190	-6809.1099	-6808.8254	-6809.1318	-6808.0157	-6806.3415	-6807.5889	-6807.4686	-6804.8753	-6804.9410	-6805.5318	-6807.1950	-6804.8753	-6803.5513	-6803.6936	-6803.1574	-6803.0808	-6804.0656	-6803.7154	-6802.1179	-6803.0261	-6801.9538	-6802.0522	-6801.2316	-6801.6583	-6800.3781	-6800.4875	-6799.0432	-6799.3496	-6797.8833	-6797.4566	-6796.8766	-6796.1435	-6796.1435	-6795.1697	-6794.7867	-6793.6706	-6793.3752	-6792.2481	-6792.2481	-6791.4494	-6792.0402	-6791.2634	-6792.3685	-6789.8847	-6789.6220	-6790.9679	-6789.8737	-6789.7315	-6789.1625	-6789.1406	-6788.5060	-6788.3528	-6787.4774	-6786.5583	-6785.3765	-6786.6020	-6784.1182	-6784.8294	-6783.7571	-6783.2756	-6782.7942	-6783.1006	-6782.4441	-6781.3170	-6780.6496	-6779.4678	-6779.9493	-6778.7675	-6779.6210	-6778.9864	-6779.0848	-6775.8241	-6775.9992	-6775.7475	-6776.4587	-6773.0776	-6773.0120	-6773.8983	-6774.9706	-6774.8174	-6773.8655	-6773.7998	-6773.3074	-6773.8326	-6772.3117	-6772.0710	-6770.5062	-6770.6704	-6769.1385	-6769.2370	-6768.9306	-6768.2631	-6767.3768	-6767.9020	-6767.8583	-6767.9896	-6767.4972	-6766.3592	-6765.8559	-6764.0285	-6763.5252	-6762.4857	-6762.6389	-6762.0480	-6761.4353	-6760.4286	-6761.7745	-6760.7897	-6760.5380	-6759.8377	-6759.7830	-6759.8049
-6817.0866	-6816.7803	-6816.9116	-6815.3250	-6813.6618	-6812.9177	-6812.4910	-6813.5524	-6811.6922	-6812.5347	-6809.9196	-6810.5761	-6809.5694	-6811.1560	-6809.3287	-6809.2631	-6807.7968	-6808.4971	-6808.5081	-6806.8230	-6805.3567	-6806.1774	-6806.1446	-6805.7725	-6806.0899	-6805.1270	-6805.0504	-6803.9124	-6803.4200	-6802.4790	-6802.4899	-6802.5118	-6802.9167	-6801.9209	-6800.5969	-6800.0061	-6801.4176	-6799.3496	-6798.9228	-6799.0651	-6798.7915	-6799.1526	-6797.9052	-6797.8286	-6795.6730	-6795.0931	-6794.8195	-6795.5417	-6794.4803	-6794.3162	-6794.0317	-6794.3053	-6792.7405	-6791.4165	-6792.0074	-6789.5783	-6789.2719	-6788.8889	-6791.2086	-6787.4446	-6787.6306	-6789.1734	-6787.5759	-6787.2039	-6787.5868	-6786.8099	-6787.4008	-6786.0549	-6784.8294	-6783.2866	-6783.6696	-6785.4094	-6784.9388	-6784.7309	-6783.5711	-6783.0787	-6782.4659	-6782.4112	-6779.9274	-6780.5182	-6780.1681	-6780.8793	-6780.6933	-6779.0082	-6777.7499	-6777.7718	-6778.6909	-6777.5420	-6777.2903	-6776.9511	-6776.8855	-6775.3426	-6774.7627	-6773.3184	-6772.4649	-6770.9330	-6773.1105	-6771.6661	-6771.5567	-6771.9287	-6771.9397	-6771.6552	-6770.9986	-6769.4558	-6767.7926	-6767.5409	-6767.6504	-6769.1166	-6767.8473	-6767.8036	-6767.2455	-6766.2498	-6765.2103	-6764.7398	-6764.5428	-6764.1817	-6764.0176	-6762.8906	-6762.6170	-6761.3587	-6761.2164	-6761.7635	-6761.8620	-6760.2316	-6760.0456	-6758.2730	-6759.7611	-6757.3429
-6815.5000	-6814.7560	-6815.6642	-6812.9505	-6813.3116	-6812.0205	-6812.4144	-6810.6746	-6810.8716	-6810.8168	-6810.7402	-6809.0989	-6811.0138	-6807.5014	-6807.1075	-6808.7488	-6808.5409	-6806.0023	-6806.8449	-6805.6194	-6804.0328	-6804.7768	-6804.9957	-6805.5209	-6804.1859	-6804.4376	-6803.8577	-6802.7307	-6801.1550	-6801.1988	-6801.9428	-6801.9756	-6802.3039	-6799.3386	-6799.4261	-6798.4195	-6798.2553	-6799.5903	-6799.2948	-6798.0037	-6797.4785	-6797.6645	-6795.3119	-6796.8985	-6796.1216	-6794.5022	-6795.4432	-6794.5132	-6793.9223	-6794.3490	-6792.7953	-6792.3466	-6791.8323	-6791.7010	-6789.8409	-6789.0968	-6788.5278	-6790.5302	-6789.0640	-6788.6263	-6787.0288	-6787.6415	-6787.5759	-6786.7005	-6786.8537	-6783.8556	-6785.0154	-6784.8513	-6784.8951	-6783.7790	-6784.1510	-6783.1772	-6782.9912	-6782.6738	-6782.9802	-6782.8927	-6781.6562	-6780.8684	-6781.6453	-6781.0872	-6779.6976	-6779.2052	-6778.7128	-6778.7347	-6778.1657	-6778.1657	-6776.9621	-6775.1129	-6775.5505	-6774.7518	-6773.4168	-6774.8284	-6774.5329	-6773.4168	-6772.7603	-6772.5634	-6772.2242	-6770.9220	-6770.2984	-6769.5871	-6770.8564	-6769.1604	-6769.8060	-6766.9829	-6768.4054	-6766.5233	-6765.6917	-6766.8297	-6766.0638	-6765.6370	-6765.1446	-6763.3611	-6762.1793	-6763.6346	-6763.9738	-6763.3611	-6761.4462	-6762.9125	-6762.3872	-6761.4134	-6759.8596	-6760.1879	-6758.8420	-6758.5903	-6758.4371	-6757.8244	-6758.0651	-6756.9053
-6814.1323	-6813.9682	-6814.2745	-6812.9943	-6810.9263	-6810.4558	-6812.3487	-6810.1166	-6808.6284	-6807.4686	-6808.8473	-6809.1755	-6808.9129	-6807.8406	-6807.3044	-6806.0680	-6807.3591	-6806.9324	-6806.4838	-6804.0546	-6805.1160	-6805.2583	-6804.6783	-6803.6170	-6803.6060	-6803.7483	-6802.2820	-6802.5556	-6799.7982	-6801.4395	-6800.2030	-6800.6298	-6798.6383	-6797.9380	-6798.6602	-6799.5575	-6799.8201	-6797.6535	-6796.3186	-6795.4104	-6796.2967	-6795.9356	-6795.3010	-6795.0384	-6795.1369	-6794.1740	-6792.4560	-6792.8718	-6793.3533	-6793.3314	-6792.4998	-6792.1825	-6791.6792	-6789.1734	-6788.2762	-6787.7728	-6786.3066	-6787.0288	-6786.0002	-6785.5735	-6785.3546	-6786.7552	-6785.7704	-6785.8033	-6784.4355	-6784.4355	-6783.6586	-6783.9431	-6782.8817	-6782.0392	-6782.4769	-6781.3170	-6782.8927	-6781.6015	-6781.2076	-6781.2623	-6779.9055	-6778.1985	-6779.2708	-6778.3517	-6778.3189	-6777.9250	-6778.1438	-6777.2794	-6776.4806	-6775.7037	-6775.6818	-6775.7475	-6774.3360	-6773.8217	-6773.9092	-6773.6576	-6772.6509	-6772.1585	-6771.4035	-6771.7318	-6770.1123	-6770.0467	-6769.7731	-6770.4625	-6769.8278	-6767.6832	-6767.3549	-6766.3701	-6766.2936	-6766.3045	-6766.6875	-6765.6370	-6766.6328	-6765.5604	-6764.3896	-6763.0219	-6763.9519	-6763.3611	-6761.9605	-6762.1684	-6762.3216	-6761.1398	-6760.1550	-6759.9690	-6759.4219	-6760.6146	-6759.0827	-6758.7763	-6758.0432	-6758.1089	-6757.2007	-6757.0256
-6811.9329	-6810.7731	-6809.8977	-6810.2807	-6809.5257	-6809.7992	-6809.0442	-6808.7488	-6809.1536	-6809.2959	-6809.2959	-6808.5190	-6808.5190	-6806.2649	-6806.0570	-6804.7331	-6804.8753	-6804.0546	-6803.8796	-6803.0699	-6805.4881	-6803.7920	-6802.1835	-6802.3805	-6802.5993	-6802.1726	-6801.5817	-6800.9143	-6800.1593	-6800.2249	-6799.6559	-6799.0760	-6797.8395	-6798.0912	-6797.8614	-6798.7806	-6796.7344	-6796.4171	-6797.0845	-6796.6687	-6795.2682	-6795.6292	-6795.9575	-6795.3995	-6794.8414	-6793.6268	-6793.3533	-6793.3095	-6793.0360	-6791.7558	-6792.0950	-6790.7491	-6791.5041	-6789.6768	-6788.7905	-6788.1339	-6788.1558	-6787.5868	-6786.4817	-6787.1491	-6785.7376	-6785.1796	-6783.5711	-6783.6039	-6782.9036	-6783.1334	-6781.1529	-6781.3827	-6781.0106	-6781.7766	-6782.5644	-6782.8051	-6781.8422	-6781.3936	-6778.2970	-6779.2052	-6779.6101	-6778.9098	-6778.6253	-6777.8703	-6778.1876	-6777.4107	-6777.4763	-6775.5943	-6776.3384	-6775.1566	-6774.9268	-6774.2047	-6773.7232	-6772.8369	-6772.0710	-6771.1299	-6771.1081	-6770.3859	-6769.8716	-6768.1318	-6767.5628	-6769.5981	-6766.7312	-6767.5300	-6766.0309	-6765.7027	-6766.8188	-6766.7969	-6766.0528	-6764.8601	-6764.7398	-6764.0395	-6764.2583	-6762.2122	-6762.0480	-6762.9015	-6760.6474	-6759.1265	-6760.8772	-6761.3477	-6760.8882	-6759.8815	-6759.0718	-6758.6888	-6757.2882	-6757.7150	-6757.8900	-6758.0213	-6757.5946	-6756.1284	-6755.5594	-6755.2092



