hs100mg_2019-04-01_12.30.01, 25um, 128 pixels, Left.wsf

Pixels in X: 	128
Lines in Y: 	128
X Range: 	25.000
Y Range: 	25.000
Z-Drive Calibration: 	1.0000
Z-Sense Calibration: 	1.9316
X Calibration: 	0.5952
Y Calibration: 	0.5940
X Offset: 	25.000
Y Offset: 	25.000
Rotation(°): 	0
Scan Rate(Hz): 	0.50
Scan Type: 	Vibrating
Vpp: 	0.200
Phase: 	86.51
Demod Gain : 	4dB
Selected (kHz) : 	149.69
Display Type: 	Z_DRIVE
Samples/Pixel: 	25
XY HV Gain: 	15
Z HV Gain: 	15
Z Sensor Gain: 	640
X GPID: 	100.000000000 %, 256, 4096, 0
Y GPID: 	100.000000000 %, 256, 4096, 0
Z GPID: 	1.0000, 100, 1000, 0
Setpoint: 	461





-6384.1089	-6370.4532	-6372.2258	-6374.8081	-6377.6640	-6382.2378	-6383.4195	-6386.9538	-6388.8687	-6407.9188	-6469.1069	-6531.7065	-6560.3419	-6561.9613	-6562.2020	-6562.7163	-6564.1825	-6565.4846	-6566.3381	-6566.9618	-6568.8548	-6496.6371	-6407.0653	-6407.6562	-6410.7090	-6410.9716	-6413.6853	-6415.9831	-6417.9855	-6419.6268	-6421.9356	-6423.0736	-6424.5836	-6428.0850	-6429.0480	-6430.0765	-6433.1841	-6432.7683	-6436.0509	-6438.7426	-6438.1080	-6438.9177	-6442.8459	-6443.9620	-6445.1000	-6445.7127	-6448.3826	-6449.3674	-6447.8027	-6449.6409	-6449.2908	-6453.3394	-6454.7399	-6457.4207	-6459.6967	-6458.6900	-6460.2876	-6463.8109	-6458.8213	-6465.3647	-6466.5027	-6468.4613	-6469.7087	-6468.2972	-6468.3628	-6472.0394	-6475.0594	-6477.6089	-6479.3596	-6478.7906	-6479.8192	-6481.2635	-6482.0185	-6481.8763	-6483.4410	-6486.0561	-6487.2488	-6489.0543	-6487.0519	-6492.1837	-6493.8360	-6495.4554	-6495.1600	-6495.2694	-6498.9897	-6499.4055	-6498.3879	-6501.0796	-6504.3185	-6503.6291	-6506.7257	-6509.6035	-6510.7196	-6512.3390	-6513.7615	-6513.4004	-6514.8338	-6516.2125	-6518.3353	-6519.2435	-6519.7249	-6520.8848	-6523.0294	-6525.2944	-6526.5746	-6529.3539	-6548.9074	-6609.4608	-6672.3559	-6699.5579	-6700.8162	-6701.2539	-6701.3195	-6701.6368	-6703.0703	-6704.2848	-6705.2806	-6702.0526	-6597.9498	-6540.7446	-6543.6880	-6543.7975	-6545.8655	-6547.8460	-6550.1548	-6549.6515	-6549.8703	-6553.1748
-6418.5217	-6384.7107	-6384.8310	-6386.9429	-6389.9410	-6391.0790	-6394.8540	-6396.4296	-6398.9244	-6399.5372	-6403.4982	-6447.8245	-6511.1025	-6565.2330	-6574.3040	-6575.1137	-6576.0109	-6577.0504	-6576.9738	-6577.6413	-6555.6915	-6433.2606	-6415.2062	-6417.9746	-6420.5460	-6421.1259	-6421.7386	-6423.8505	-6425.7325	-6428.6759	-6428.5227	-6430.5798	-6432.5932	-6434.9457	-6437.5390	-6437.5390	-6440.3621	-6442.3973	-6443.3821	-6444.0824	-6446.2489	-6446.7413	-6448.4701	-6450.5163	-6450.9649	-6453.6676	-6454.9260	-6455.8889	-6454.6852	-6456.8408	-6458.9745	-6459.7952	-6460.8347	-6463.4498	-6465.0583	-6467.4984	-6468.1987	-6470.2449	-6472.3457	-6467.2467	-6472.2254	-6475.0375	-6476.6350	-6478.1231	-6480.6070	-6481.9638	-6482.9377	-6483.9990	-6484.1085	-6485.2464	-6488.2446	-6488.0038	-6488.0038	-6489.2075	-6489.7655	-6491.0567	-6495.4773	-6492.3916	-6495.2256	-6496.2870	-6498.2237	-6500.3246	-6501.6158	-6503.4650	-6505.5659	-6507.7762	-6518.2696	-6571.3277	-6634.8246	-6678.7132	-6681.0439	-6648.3818	-6564.3795	-6529.2992	-6516.6611	-6518.2149	-6520.0532	-6521.8258	-6522.0227	-6521.6398	-6522.7011	-6524.5722	-6527.5485	-6528.5552	-6530.7873	-6532.3739	-6560.8343	-6623.7512	-6685.0596	-6705.0836	-6705.8933	-6705.7511	-6706.8015	-6707.9176	-6708.7601	-6709.7887	-6710.4343	-6710.9376	-6713.0932	-6628.4782	-6546.5220	-6547.4083	-6551.2818	-6552.6277	-6553.9517	-6554.2909	-6557.9784	-6557.0811
-6422.7016	-6386.1113	-6387.4243	-6388.3434	-6390.3787	-6391.3744	-6396.2983	-6397.7427	-6398.9791	-6399.1870	-6402.6666	-6403.6842	-6421.4213	-6481.2088	-6545.3075	-6576.9848	-6578.2431	-6577.9039	-6579.2279	-6502.5349	-6419.4846	-6416.0269	-6417.5369	-6420.6444	-6422.2967	-6422.7453	-6424.8462	-6424.4742	-6425.5793	-6427.3082	-6430.0984	-6430.2516	-6435.2959	-6436.3901	-6437.3202	-6439.3773	-6441.8173	-6442.9772	-6443.0319	-6446.1942	-6447.4744	-6448.4482	-6450.0130	-6450.5163	-6452.9126	-6454.4664	-6452.8251	-6454.8822	-6456.9831	-6457.3770	-6459.4450	-6460.4079	-6460.3860	-6463.4936	-6466.0869	-6465.9337	-6467.6078	-6466.3385	-6471.8533	-6472.6959	-6470.2230	-6476.3396	-6477.7621	-6479.8629	-6479.6441	-6481.0884	-6483.4738	-6482.5219	-6484.1194	-6483.5832	-6484.2616	-6485.7935	-6486.5595	-6489.4263	-6490.8488	-6493.1466	-6491.5162	-6495.2475	-6495.7618	-6499.0116	-6499.7666	-6501.0030	-6502.9945	-6505.1282	-6506.4850	-6529.0257	-6589.9949	-6652.9446	-6680.0263	-6679.1837	-6679.8074	-6680.5843	-6682.5976	-6678.5381	-6599.0221	-6521.8914	-6518.5760	-6519.1231	-6521.6069	-6522.6574	-6523.1935	-6524.8348	-6525.8087	-6528.8287	-6530.6232	-6530.7107	-6554.6958	-6617.5580	-6680.0700	-6704.7882	-6705.9261	-6705.5432	-6706.4732	-6707.4909	-6709.1322	-6709.2197	-6710.1279	-6711.8567	-6712.8853	-6709.2744	-6590.8484	-6547.5068	-6549.9578	-6550.7676	-6551.3913	-6553.3389	-6555.8885	-6555.2866
-6393.2893	-6386.5271	-6386.0456	-6386.6365	-6387.9495	-6391.8777	-6392.4030	-6393.5628	-6398.1585	-6400.0296	-6401.6162	-6402.1086	-6403.5529	-6405.6866	-6409.0896	-6420.1849	-6426.2249	-6417.6791	-6418.2591	-6414.2762	-6416.2786	-6417.4712	-6419.9770	-6421.7934	-6421.5964	-6421.9575	-6424.7915	-6428.0194	-6426.0936	-6428.7197	-6431.3458	-6431.5427	-6431.8601	-6434.7488	-6435.2630	-6439.1694	-6440.7560	-6442.0034	-6444.0167	-6446.1723	-6445.7456	-6447.7151	-6443.9292	-6447.3540	-6451.6214	-6451.0743	-6454.0944	-6456.1515	-6456.9940	-6458.1648	-6457.7271	-6459.5216	-6462.6839	-6460.6377	-6462.9903	-6463.9750	-6466.9841	-6470.7372	-6471.5470	-6472.8710	-6474.6107	-6465.7805	-6473.9433	-6474.8405	-6474.7749	-6469.9822	-6466.2619	-6472.7287	-6482.3249	-6485.0057	-6483.0361	-6486.3188	-6486.0014	-6488.0695	-6491.1223	-6492.4791	-6492.0086	-6493.4092	-6495.1381	-6498.1253	-6498.2237	-6500.3903	-6502.6881	-6504.3513	-6527.3187	-6587.2375	-6650.2529	-6677.8378	-6676.6342	-6677.4330	-6679.0524	-6679.9497	-6681.1861	-6679.8950	-6682.4226	-6626.1475	-6522.1759	-6517.3067	-6519.0793	-6522.2635	-6522.6136	-6521.2787	-6524.8130	-6526.1479	-6528.9819	-6529.2992	-6557.6392	-6621.3768	-6683.3855	-6703.9456	-6704.3395	-6705.8167	-6706.4404	-6706.1669	-6706.3419	-6708.3443	-6710.9486	-6711.2549	-6711.1346	-6713.4215	-6681.7551	-6554.4988	-6546.8722	-6549.7828	-6552.0478	-6550.9645	-6554.4332	-6553.8313
-6384.3605	-6383.7478	-6384.5903	-6387.0523	-6388.7155	-6388.8030	-6390.2692	-6391.9981	-6396.9220	-6398.8588	-6399.7998	-6400.8065	-6402.8855	-6404.5705	-6405.8945	-6408.0063	-6409.7571	-6411.9674	-6412.8646	-6413.8604	-6414.7357	-6418.0840	-6418.6858	-6418.9375	-6422.2529	-6422.9094	-6421.2463	-6420.5788	-6424.9775	-6425.9185	-6428.7963	-6430.3391	-6431.3786	-6433.9938	-6436.2260	-6437.0466	-6438.1627	-6439.0381	-6440.6356	-6440.7997	-6443.8963	-6446.7632	-6447.9011	-6448.4592	-6449.0938	-6450.1552	-6454.0725	-6454.4117	-6455.3636	-6455.1886	-6456.4578	-6456.8189	-6458.4821	-6460.2219	-6461.9289	-6461.6991	-6464.7957	-6467.8157	-6468.3300	-6469.8509	-6471.4266	-6470.3543	-6460.7690	-6474.7420	-6479.0423	-6506.7585	-6541.5106	-6545.8108	-6549.8047	-6520.4252	-6486.8659	-6484.1303	-6486.3735	-6489.4591	-6489.0324	-6489.9844	-6490.7065	-6491.6475	-6492.9168	-6493.2341	-6496.2432	-6500.0182	-6500.9155	-6506.5178	-6555.6806	-6619.2321	-6669.5875	-6674.5771	-6675.7370	-6676.1637	-6677.2141	-6677.9254	-6678.3084	-6680.0700	-6680.5296	-6681.0548	-6631.7498	-6520.9504	-6518.2040	-6517.4271	-6520.0641	-6520.9504	-6522.0227	-6524.2002	-6525.2397	-6527.6032	-6560.0574	-6624.7907	-6685.2237	-6701.2101	-6701.6040	-6703.7268	-6703.5517	-6704.0222	-6705.2915	-6706.2982	-6708.1583	-6708.5851	-6708.1146	-6710.9923	-6697.0631	-6561.2719	-6545.7999	-6546.7299	-6549.2028	-6547.8460	-6551.6429	-6551.9493
-6382.3910	-6384.2402	-6385.9252	-6386.3082	-6386.8881	-6388.1903	-6389.6893	-6392.4686	-6394.7555	-6396.6157	-6398.6071	-6400.4235	-6401.5068	-6403.4107	-6404.4721	-6406.2666	-6408.3456	-6409.7571	-6411.2233	-6412.7005	-6415.2062	-6415.1078	-6412.8209	-6416.2457	-6417.2743	-6418.6202	-6420.5131	-6421.9356	-6423.3034	-6426.0279	-6424.8681	-6426.8924	-6429.6498	-6430.7002	-6433.5670	-6433.8187	-6435.8867	-6438.6004	-6439.7821	-6439.8587	-6442.1128	-6443.4587	-6444.1699	-6444.8921	-6445.5486	-6448.6780	-6448.8093	-6450.6695	-6451.6324	-6451.5230	-6453.8099	-6455.1886	-6456.5235	-6456.4250	-6459.8280	-6460.4955	-6463.6358	-6463.7234	-6467.0169	-6468.0455	-6467.0717	-6462.2681	-6466.7543	-6498.0815	-6557.9237	-6620.6546	-6644.3004	-6646.6967	-6646.8280	-6646.1058	-6619.8667	-6541.3793	-6486.6142	-6483.1127	-6485.1151	-6486.3188	-6487.2817	-6485.9577	-6489.9844	-6491.4506	-6493.4858	-6495.8712	-6495.1381	-6501.1124	-6552.5402	-6616.0480	-6666.7645	-6672.2027	-6672.7826	-6673.9425	-6672.8920	-6674.8507	-6675.5728	-6675.9886	-6677.0938	-6677.6081	-6678.6804	-6578.1884	-6513.5207	-6514.0569	-6516.6283	-6518.2258	-6518.6526	-6518.8495	-6519.7687	-6524.2768	-6540.0662	-6597.5449	-6662.1688	-6696.9646	-6698.6825	-6699.1202	-6700.0393	-6700.6411	-6701.8885	-6703.6721	-6703.7487	-6705.0289	-6708.0051	-6707.3814	-6700.0284	-6572.6955	-6543.5786	-6542.8236	-6543.9506	-6546.7190	-6547.2770	-6548.7870
-6378.0798	-6382.0955	-6382.0518	-6381.9752	-6383.3429	-6381.7673	-6386.0456	-6388.6279	-6389.5252	-6391.7902	-6395.3135	-6396.5828	-6397.1409	-6398.2241	-6400.8721	-6402.9292	-6403.8702	-6404.5158	-6405.8945	-6409.9759	-6410.4027	-6409.4398	-6411.2780	-6413.2914	-6413.0616	-6415.1078	-6415.5564	-6418.1387	-6419.9004	-6420.5350	-6422.3076	-6424.9994	-6426.5094	-6426.3015	-6425.5793	-6430.2953	-6430.3282	-6434.1688	-6436.8387	-6437.5062	-6438.1299	-6438.9834	-6438.8411	-6440.8763	-6443.3711	-6443.5353	-6445.7237	-6448.4701	-6448.4154	-6450.3741	-6449.5972	-6450.9868	-6453.0111	-6455.3746	-6454.3132	-6457.6177	-6459.2043	-6462.5307	-6463.9203	-6460.7471	-6463.9641	-6472.0612	-6513.4223	-6575.2778	-6629.8678	-6640.1971	-6641.4336	-6641.0068	-6641.4117	-6643.1405	-6643.9174	-6643.9721	-6584.6552	-6482.8173	-6479.2283	-6480.2787	-6481.5699	-6484.9838	-6485.0823	-6487.3035	-6490.0391	-6490.5862	-6491.9867	-6508.3123	-6569.0846	-6632.3954	-6666.3158	-6668.3511	-6669.0842	-6669.2921	-6669.9705	-6671.8306	-6671.6665	-6673.0562	-6674.1175	-6675.2008	-6675.6057	-6662.8800	-6526.0604	-6510.2272	-6514.4180	-6515.5997	-6513.6302	-6518.1711	-6517.1316	-6519.5608	-6537.5277	-6598.3109	-6662.9019	-6695.5312	-6696.3737	-6697.1725	-6697.9603	-6699.9408	-6699.4375	-6699.7439	-6701.7134	-6703.1031	-6703.7487	-6705.6088	-6699.1858	-6563.9309	-6540.9306	-6540.8212	-6543.1300	-6546.7299	-6546.6752	-6548.1086
-6377.0512	-6379.0099	-6379.1521	-6379.5460	-6380.6840	-6382.1831	-6382.9381	-6384.0870	-6387.7854	-6388.9562	-6391.1446	-6391.1993	-6394.0005	-6395.3683	-6394.4491	-6396.0138	-6397.8740	-6398.5962	-6400.3907	-6401.7037	-6405.9602	-6407.7875	-6410.1510	-6409.5382	-6410.5121	-6412.4598	-6411.3546	-6414.8999	-6411.9455	-6416.2786	-6418.2262	-6419.7691	-6421.6511	-6422.6250	-6425.1197	-6425.9404	-6427.7568	-6429.7811	-6431.1707	-6432.4400	-6433.8843	-6435.2412	-6437.0904	-6439.8040	-6441.2593	-6435.6023	-6440.8763	-6445.0234	-6446.0519	-6447.4635	-6449.2798	-6448.8422	-6450.1771	-6451.9388	-6452.5187	-6454.9369	-6456.4688	-6459.3465	-6460.0359	-6461.3489	-6464.4346	-6487.3364	-6547.4740	-6609.0341	-6635.3935	-6636.6081	-6636.1704	-6636.4002	-6638.6981	-6639.1138	-6639.5953	-6641.0944	-6640.9412	-6555.2538	-6479.5675	-6476.5256	-6478.4514	-6481.0556	-6482.9705	-6483.8021	-6485.7826	-6486.1109	-6489.3388	-6506.3756	-6563.9528	-6627.8763	-6663.7116	-6664.7621	-6664.9918	-6665.7469	-6667.3553	-6668.0447	-6668.0994	-6669.0951	-6670.9115	-6672.4981	-6672.1808	-6671.9401	-6550.4612	-6506.5944	-6508.2686	-6510.0193	-6511.9998	-6516.8253	-6517.4490	-6514.5821	-6520.4471	-6553.7985	-6618.8272	-6677.9144	-6693.0254	-6692.9488	-6694.6230	-6694.6996	-6695.0825	-6696.6254	-6698.4965	-6699.0436	-6700.1487	-6701.1992	-6687.4669	-6553.7547	-6537.3635	-6538.3811	-6538.6219	-6541.9592	-6540.7884	-6543.7865
-6373.1230	-6373.2215	-6373.5060	-6375.2130	-6374.7315	-6377.3138	-6379.2396	-6379.6117	-6382.5441	-6384.1089	-6385.0499	-6387.8511	-6389.4924	-6389.1641	-6391.6589	-6392.6437	-6395.6527	-6396.8235	-6400.1609	-6401.4630	-6402.3384	-6404.5049	-6402.7432	-6405.0410	-6405.4021	-6407.7875	-6409.7352	-6411.8251	-6412.9084	-6414.9108	-6413.9260	-6416.8038	-6417.8214	-6419.4846	-6423.6754	-6422.5921	-6422.8000	-6426.4656	-6427.7568	-6429.6607	-6432.6370	-6451.5339	-6499.3836	-6561.7425	-6601.2652	-6604.0117	-6575.7811	-6528.0518	-6451.5886	-6439.5305	-6440.4168	-6442.2769	-6445.2313	-6444.3669	-6445.7018	-6448.7327	-6450.8227	-6453.1862	-6456.7970	-6459.2700	-6459.7842	-6494.9739	-6556.8076	-6615.1398	-6632.2860	-6631.0605	-6631.2903	-6633.2708	-6633.6100	-6634.9230	-6635.8531	-6635.9406	-6637.6257	-6638.3151	-6554.4660	-6474.7968	-6475.2235	-6476.8539	-6477.4010	-6478.4514	-6482.5547	-6481.8653	-6484.9729	-6498.1800	-6552.1353	-6616.2559	-6658.6783	-6661.0199	-6661.9828	-6661.3919	-6663.7554	-6664.4119	-6664.7511	-6667.4648	-6668.6137	-6668.8872	-6669.4781	-6671.3601	-6571.5247	-6504.4717	-6504.6796	-6506.2880	-6511.0916	-6510.3585	-6512.5797	-6510.8290	-6516.9675	-6528.0081	-6584.2722	-6649.0821	-6690.0820	-6689.4911	-6690.8698	-6691.7671	-6692.1938	-6694.9950	-6695.0278	-6694.9512	-6696.8442	-6698.5293	-6630.5681	-6533.9496	-6535.3283	-6536.7508	-6535.5143	-6538.5672	-6540.3726	-6540.4820
-6367.1815	-6367.4113	-6368.2757	-6371.9085	-6371.0003	-6374.2282	-6375.6616	-6378.0907	-6378.4080	-6380.5199	-6382.5004	-6383.7259	-6384.8639	-6385.7392	-6388.1903	-6391.0352	-6394.0880	-6393.8035	-6396.5609	-6395.8825	-6398.5524	-6398.6509	-6399.2965	-6401.5396	-6402.5134	-6404.6909	-6403.4544	-6406.5182	-6409.0021	-6409.9212	-6408.5316	-6412.2628	-6414.2652	-6415.5454	-6419.5065	-6419.7581	-6421.3010	-6424.5945	-6426.2796	-6429.6498	-6471.9299	-6534.1903	-6588.9335	-6599.4488	-6599.1425	-6600.7400	-6602.3704	-6601.2871	-6589.7104	-6486.9425	-6438.4253	-6438.3378	-6439.3335	-6441.1937	-6443.7760	-6444.5966	-6445.6361	-6450.5272	-6451.7528	-6454.6852	-6457.0159	-6497.5891	-6560.1449	-6615.5884	-6626.4210	-6627.6356	-6629.0690	-6630.4587	-6630.7103	-6631.1480	-6632.4720	-6633.6756	-6634.8902	-6634.6933	-6616.9562	-6486.6689	-6467.8704	-6471.6345	-6473.9652	-6474.1949	-6480.2021	-6477.6308	-6479.1626	-6495.0943	-6554.2909	-6618.4552	-6655.0017	-6656.8181	-6657.0698	-6658.2515	-6657.3652	-6659.2910	-6660.2649	-6662.1250	-6663.3068	-6664.1931	-6666.2502	-6666.2174	-6556.5887	-6501.2000	-6502.3817	-6505.4455	-6505.7519	-6505.8175	-6507.8856	-6507.3604	-6511.5949	-6513.8162	-6522.6574	-6578.6480	-6643.0858	-6685.3113	-6687.8608	-6687.8827	-6689.8960	-6689.7319	-6691.2091	-6692.5330	-6692.7738	-6640.6348	-6532.0019	-6528.9491	-6531.9363	-6531.3235	-6532.4286	-6533.5776	-6535.5253	-6537.0462
-6361.5244	-6364.3912	-6366.0216	-6367.2143	-6368.6587	-6369.3699	-6372.1164	-6373.7905	-6372.9698	-6375.6835	-6378.1564	-6378.3862	-6381.5703	-6382.7083	-6382.8724	-6386.2426	-6386.8991	-6387.2602	-6389.8097	-6391.3744	-6391.0571	-6393.4315	-6396.7579	-6397.1299	-6397.3707	-6398.4867	-6402.0976	-6403.2137	-6404.1876	-6405.5881	-6406.6824	-6408.4003	-6410.8403	-6412.3503	-6412.3285	-6416.1582	-6420.4256	-6419.9879	-6422.2967	-6458.3836	-6521.3443	-6578.8559	-6592.9930	-6593.9122	-6595.8489	-6595.2799	-6596.4945	-6597.1948	-6598.4422	-6593.8137	-6481.0775	-6433.5233	-6436.1712	-6436.8387	-6436.6636	-6439.2569	-6443.7760	-6444.6951	-6447.5948	-6448.6233	-6458.1976	-6513.7068	-6575.9453	-6619.3196	-6621.3220	-6615.3914	-6581.4820	-6596.5711	-6624.7907	-6627.9748	-6629.4520	-6630.5681	-6630.7869	-6631.4544	-6630.4149	-6508.7172	-6467.0060	-6466.7653	-6471.0765	-6472.4114	-6475.0265	-6471.7111	-6476.0551	-6482.8829	-6528.6755	-6593.2666	-6645.6682	-6653.0322	-6652.8461	-6653.7215	-6655.3847	-6656.9932	-6657.6607	-6657.4199	-6659.3239	-6660.5056	-6663.0004	-6661.5342	-6541.6966	-6498.4863	-6499.2304	-6499.0882	-6499.1757	-6501.7908	-6507.0540	-6503.6510	-6505.9817	-6510.9384	-6512.9080	-6520.0641	-6571.1745	-6635.0872	-6682.4663	-6686.5696	-6686.4055	-6687.5216	-6688.2000	-6689.5896	-6662.3001	-6532.5052	-6524.7801	-6527.1765	-6528.7193	-6528.4567	-6529.3758	-6530.6341	-6531.1594	-6534.6608
-6358.6467	-6359.1391	-6361.6995	-6361.0320	-6364.5335	-6366.5031	-6364.9602	-6368.3085	-6368.4508	-6371.4598	-6369.5450	-6375.4756	-6377.2701	-6379.5460	-6380.9904	-6381.5375	-6383.7368	-6384.2949	-6387.8511	-6390.5756	-6413.2804	-6451.5667	-6432.6588	-6419.7581	-6398.9244	-6395.9810	-6397.4254	-6398.9244	-6399.7341	-6402.8745	-6404.1766	-6404.3079	-6405.4021	-6407.2295	-6411.4969	-6413.9151	-6414.8670	-6414.7357	-6431.2145	-6490.9363	-6553.4921	-6587.0952	-6589.3931	-6590.8921	-6589.8417	-6591.3845	-6593.3541	-6594.8094	-6594.8532	-6595.9364	-6586.7998	-6468.8990	-6429.5185	-6431.0941	-6433.3263	-6435.4928	-6437.7797	-6441.3031	-6441.8830	-6443.4915	-6453.3175	-6507.9622	-6570.9557	-6611.4961	-6566.8086	-6559.0179	-6605.4013	-6622.0442	-6622.8320	-6623.3354	-6623.6418	-6624.8344	-6626.1037	-6628.1718	-6628.2921	-6530.6889	-6463.6249	-6462.2353	-6464.4346	-6466.6887	-6470.9561	-6471.3500	-6470.6388	-6476.0442	-6491.5272	-6553.1639	-6617.3172	-6649.4213	-6649.0383	-6650.8000	-6652.1130	-6652.0583	-6652.6273	-6654.3780	-6655.6473	-6657.9780	-6658.3828	-6645.8323	-6511.8466	-6494.1533	-6496.1885	-6495.3131	-6496.8013	-6500.4012	-6500.2699	-6501.1015	-6501.9222	-6507.4151	-6508.7609	-6510.6977	-6512.3171	-6539.7051	-6603.0160	-6662.8910	-6682.1381	-6683.9982	-6676.3388	-6554.8161	-6519.4842	-6521.9680	-6523.1826	-6524.7145	-6525.5680	-6526.3120	-6526.8044	-6527.5704	-6527.6470	-6528.2707
-6353.9525	-6355.4735	-6355.9877	-6358.7561	-6361.5354	-6361.7433	-6362.3888	-6363.8113	-6365.7152	-6367.8052	-6366.3171	-6371.9085	-6374.0640	-6374.7424	-6375.9789	-6377.7406	-6382.1065	-6390.9477	-6443.3711	-6508.4327	-6551.5335	-6555.1006	-6555.3961	-6556.2824	-6553.5578	-6482.4124	-6398.4867	-6391.8121	-6394.0990	-6396.8454	-6397.4582	-6399.7013	-6400.4235	-6400.8612	-6406.2337	-6407.5796	-6408.9474	-6412.7333	-6439.3444	-6501.8237	-6562.2786	-6583.1561	-6584.2284	-6585.7165	-6585.1585	-6587.4126	-6588.9335	-6588.9554	-6590.3232	-6591.9754	-6591.3189	-6529.4633	-6428.7197	-6427.0237	-6429.2011	-6431.6959	-6432.7464	-6435.4272	-6438.1189	-6441.2155	-6446.0629	-6497.8298	-6561.1954	-6566.2725	-6540.3398	-6550.9864	-6574.2274	-6605.8171	-6620.7640	-6620.8844	-6619.3196	-6622.9524	-6623.8715	-6624.5718	-6625.2502	-6539.8364	-6461.9945	-6461.1410	-6461.0097	-6464.9051	-6465.4413	-6468.1330	-6464.9927	-6471.5470	-6476.1207	-6505.6206	-6567.1807	-6628.0733	-6647.0250	-6648.0098	-6649.0274	-6648.0426	-6649.8699	-6650.8766	-6651.9489	-6653.2401	-6653.8747	-6544.8041	-6489.2403	-6490.5205	-6491.6475	-6493.0810	-6494.3721	-6495.9150	-6496.8122	-6495.0396	-6497.5125	-6503.4540	-6504.6577	-6505.3689	-6507.0430	-6509.1658	-6509.9865	-6511.8247	-6512.9955	-6515.0089	-6515.8624	-6517.4927	-6518.8495	-6520.3267	-6520.0641	-6522.2963	-6523.3248	-6522.8106	-6522.4714	-6521.8039	-6524.0251	-6528.4129
-6349.7398	-6349.2146	-6353.2632	-6355.3312	-6357.1804	-6359.1281	-6359.8831	-6359.6424	-6360.8898	-6362.1044	-6364.5444	-6366.6891	-6370.2781	-6370.8142	-6374.0422	-6376.6901	-6387.1398	-6438.9943	-6503.8151	-6546.5767	-6549.0825	-6549.3341	-6551.6758	-6551.7086	-6554.5535	-6554.8161	-6535.9958	-6413.6853	-6390.4662	-6390.7945	-6392.7969	-6394.0114	-6395.7841	-6396.5938	-6401.2551	-6402.7542	-6404.8879	-6410.2057	-6449.1704	-6512.9299	-6568.3734	-6580.3659	-6579.8954	-6579.3154	-6581.8430	-6584.1299	-6585.1147	-6585.8588	-6587.2375	-6587.9050	-6589.3165	-6586.9421	-6458.8104	-6422.2310	-6423.9161	-6425.4371	-6429.0480	-6432.5713	-6435.1099	-6435.9305	-6436.9262	-6476.7007	-6540.5039	-6551.0849	-6538.2717	-6541.0948	-6555.6040	-6588.2223	-6614.5161	-6615.8291	-6616.9452	-6618.1379	-6618.9695	-6619.3196	-6620.3263	-6521.2896	-6455.9873	-6456.4360	-6454.5649	-6460.2329	-6461.3818	-6461.5787	-6459.4560	-6463.7015	-6468.7348	-6470.9342	-6506.0801	-6570.5946	-6629.1456	-6643.9502	-6643.6658	-6644.3989	-6645.8760	-6646.5326	-6647.2000	-6648.0207	-6555.5383	-6483.9881	-6484.5243	-6487.1175	-6489.2841	-6487.3911	-6489.9078	-6489.9406	-6493.6281	-6493.8360	-6493.9454	-6495.2256	-6499.8432	-6503.3337	-6504.2200	-6504.9093	-6507.3604	-6507.9512	-6510.1396	-6510.6320	-6511.5293	-6513.6521	-6514.5165	-6516.5517	-6516.0703	-6518.7401	-6519.7687	-6518.6635	-6517.6569	-6518.3353	-6522.0227	-6522.9200
-6345.7897	-6347.9563	-6350.6918	-6351.0966	-6352.3112	-6351.6219	-6355.5063	-6356.4801	-6357.8260	-6359.1281	-6361.3603	-6365.3542	-6367.3347	-6368.1553	-6370.8142	-6374.7753	-6418.3028	-6481.8325	-6536.3021	-6545.0230	-6544.9683	-6545.1324	-6546.8175	-6548.4697	-6548.6339	-6549.8156	-6552.3651	-6513.7286	-6394.0552	-6385.0171	-6387.5009	-6390.2911	-6391.8887	-6392.8406	-6396.0248	-6398.9244	-6401.9226	-6404.8331	-6450.2756	-6514.8119	-6566.1631	-6573.9319	-6574.5556	-6576.7550	-6578.0790	-6578.8777	-6578.5495	-6580.0157	-6581.7883	-6582.8497	-6582.9591	-6583.8783	-6469.3695	-6420.0973	-6420.4147	-6421.5198	-6425.6559	-6427.5598	-6429.3215	-6431.0285	-6433.8843	-6466.6668	-6530.9296	-6563.2853	-6539.5957	-6539.2127	-6549.4983	-6573.9538	-6594.1748	-6606.5065	-6612.9951	-6614.3519	-6614.6146	-6617.3501	-6616.3215	-6485.1917	-6452.0154	-6452.6172	-6453.5910	-6456.0858	-6457.2128	-6459.8718	-6459.0183	-6461.5459	-6465.1568	-6467.4327	-6468.8224	-6492.2056	-6554.9803	-6616.9562	-6640.6676	-6640.4707	-6641.6196	-6643.6110	-6625.2831	-6505.5002	-6480.7274	-6480.8040	-6482.8282	-6485.8701	-6485.4653	-6485.3121	-6485.2136	-6487.2051	-6490.8159	-6488.9449	-6491.6257	-6491.9977	-6496.3417	-6498.2237	-6499.4164	-6501.2328	-6503.7604	-6502.6115	-6503.4978	-6506.2990	-6506.8242	-6508.7281	-6509.5597	-6511.2886	-6513.7943	-6513.5864	-6513.9475	-6513.5426	-6515.2605	-6517.3286	-6516.1578	-6517.7006
-6464.0407	-6381.1545	-6356.7537	-6344.6955	-6347.0481	-6347.9234	-6348.1860	-6350.4292	-6352.1908	-6353.2632	-6356.4035	-6359.5658	-6362.6186	-6363.1986	-6364.6757	-6383.5836	-6443.0100	-6505.9598	-6537.2760	-6539.0486	-6539.2784	-6541.0729	-6542.1890	-6543.1956	-6542.7251	-6546.0844	-6547.9773	-6548.1633	-6457.8147	-6382.4676	-6383.7806	-6385.0280	-6386.5927	-6387.3587	-6392.0090	-6392.8953	-6393.7269	-6403.3013	-6457.7818	-6522.3182	-6566.3600	-6569.4894	-6569.8177	-6572.8377	-6571.4918	-6573.6912	-6575.3325	-6577.2802	-6577.7069	-6577.5647	-6580.5956	-6581.7555	-6500.0729	-6415.0312	-6414.2762	-6417.5259	-6420.2724	-6420.8961	-6425.4371	-6427.8553	-6429.3762	-6436.9044	-6491.7570	-6555.1772	-6555.3632	-6541.7841	-6550.2314	-6582.0072	-6607.2068	-6607.1849	-6608.5636	-6608.5526	-6610.0408	-6611.6055	-6549.9469	-6447.4197	-6447.2993	-6448.3388	-6448.0543	-6450.7351	-6453.6020	-6455.4074	-6455.1886	-6456.6110	-6460.2438	-6462.0602	-6463.5811	-6465.0364	-6467.4984	-6508.2686	-6521.8258	-6547.7147	-6550.7238	-6482.5985	-6476.2192	-6477.1384	-6476.5694	-6477.8824	-6480.7711	-6480.7711	-6479.8848	-6482.2811	-6481.8544	-6482.0732	-6485.1370	-6486.1656	-6482.0951	-6486.9425	-6490.9801	-6493.5952	-6495.0068	-6497.1952	-6499.8869	-6499.6462	-6500.8717	-6503.3446	-6503.4759	-6503.7385	-6505.0625	-6505.5549	-6507.6667	-6505.4564	-6509.3190	-6510.3804	-6512.7220	-6512.7329	-6512.5360	-6514.0131
-6503.4650	-6505.4783	-6499.5040	-6415.6767	-6341.7083	-6341.7083	-6343.4919	-6345.8335	-6347.8359	-6348.6347	-6352.0376	-6354.8169	-6356.0206	-6357.9792	-6359.7518	-6393.1689	-6454.7509	-6514.4618	-6531.5861	-6534.1247	-6534.0043	-6535.5034	-6536.0942	-6536.8821	-6539.4863	-6540.5367	-6542.8236	-6542.7580	-6524.2221	-6391.2103	-6377.5874	-6379.4366	-6382.1174	-6383.7478	-6387.0632	-6388.4310	-6389.7769	-6396.7141	-6444.0276	-6508.8704	-6560.1011	-6566.3600	-6566.4257	-6567.2026	-6568.1655	-6569.8505	-6571.0651	-6572.5095	-6573.8663	-6574.3149	-6576.9629	-6576.0437	-6486.1218	-6410.5011	-6409.8774	-6412.6020	-6416.7272	-6415.7205	-6420.2068	-6422.3952	-6423.7520	-6424.2663	-6431.7397	-6492.6870	-6554.9365	-6596.5273	-6600.0944	-6602.0859	-6602.8737	-6601.7357	-6603.8147	-6604.8433	-6606.3423	-6574.7307	-6448.2951	-6442.7803	-6443.8635	-6443.2070	-6443.8745	-6446.5224	-6448.6890	-6450.8336	-6449.1267	-6450.7789	-6452.1795	-6457.0706	-6458.7776	-6460.7909	-6463.3951	-6463.9750	-6465.5288	-6465.0911	-6468.2206	-6470.9014	-6470.6716	-6471.9956	-6473.8667	-6474.8405	-6476.6460	-6476.3068	-6477.7292	-6477.9481	-6476.4052	-6478.4733	-6480.5961	-6481.3073	-6482.9486	-6483.5504	-6486.2312	-6486.4719	-6490.4767	-6491.2646	-6492.0196	-6494.2080	-6492.8512	-6493.6718	-6498.6833	-6500.7623	-6501.7143	-6503.6729	-6503.4103	-6505.2595	-6506.2552	-6506.7804	-6506.2552	-6506.5506	-6507.8746	-6509.8770
-6499.3289	-6502.0097	-6502.6881	-6495.5210	-6384.6560	-6338.0537	-6339.3777	-6342.1570	-6342.6822	-6344.4001	-6345.7678	-6350.5933	-6353.2303	-6354.1385	-6359.4673	-6403.0605	-6464.9708	-6518.1164	-6527.8658	-6529.4852	-6530.2621	-6530.4810	-6531.7065	-6533.6542	-6534.1575	-6535.6894	-6537.3854	-6538.5234	-6533.7964	-6408.5425	-6371.1753	-6374.2063	-6377.1825	-6377.5764	-6380.4104	-6384.2949	-6386.3958	-6387.4134	-6420.5460	-6485.0714	-6544.6181	-6561.7206	-6562.1364	-6562.8695	-6564.4670	-6565.9552	-6565.0798	-6566.7539	-6567.6731	-6568.9533	-6570.6165	-6569.3472	-6445.9425	-6407.0653	-6406.6605	-6406.7590	-6409.1662	-6413.4555	-6416.4536	-6417.8980	-6418.5217	-6421.5198	-6419.8676	-6434.1688	-6489.0214	-6551.0630	-6594.7875	-6596.9650	-6597.3042	-6599.0768	-6601.2324	-6601.2105	-6588.6928	-6456.0749	-6436.5761	-6438.5128	-6440.7231	-6438.8302	-6441.0186	-6442.7803	-6442.9006	-6444.6951	-6442.1566	-6447.3431	-6449.2689	-6452.5406	-6454.5211	-6456.7970	-6458.7010	-6458.7885	-6460.3204	-6462.1477	-6462.7058	-6464.5659	-6466.4698	-6467.5422	-6470.4965	-6470.6059	-6472.1050	-6472.2801	-6472.8381	-6472.4333	-6474.2497	-6475.8363	-6474.6764	-6476.6678	-6478.0575	-6478.7031	-6480.9790	-6483.6598	-6484.3054	-6484.0209	-6488.1680	-6491.3193	-6491.7132	-6494.0439	-6494.8426	-6497.0639	-6495.2147	-6496.5824	-6498.1143	-6500.0182	-6500.9045	-6499.6353	-6502.2723	-6503.8589	-6503.4540	-6504.0887
-6494.5034	-6497.6000	-6497.8955	-6498.3113	-6493.7812	-6372.5431	-6333.5018	-6335.4495	-6336.6203	-6338.4914	-6341.6974	-6345.7022	-6347.2778	-6348.7331	-6355.8455	-6404.8331	-6466.6449	-6517.1207	-6524.2330	-6525.5789	-6525.6336	-6526.3230	-6528.1065	-6530.0652	-6528.6536	-6531.7940	-6534.0262	-6533.7964	-6535.8535	-6470.3871	-6371.4161	-6369.3261	-6371.8866	-6375.4318	-6375.0051	-6380.1697	-6380.7387	-6382.6864	-6397.1737	-6456.7205	-6521.4428	-6557.0811	-6558.2629	-6559.7072	-6560.8890	-6561.3595	-6561.8956	-6563.3619	-6565.1126	-6565.7144	-6567.1150	-6547.1457	-6413.1929	-6403.2575	-6403.1809	-6401.4520	-6407.0106	-6409.7352	-6410.2604	-6414.0792	-6416.5193	-6417.2415	-6416.1363	-6419.4189	-6423.7629	-6464.7629	-6526.2573	-6582.7622	-6594.9407	-6596.3303	-6594.5030	-6494.7660	-6431.8819	-6432.0789	-6433.2059	-6433.9828	-6435.9743	-6436.7949	-6437.6594	-6438.5019	-6437.3858	-6441.8939	-6440.6575	-6441.1389	-6444.1152	-6447.5291	-6450.4944	-6451.5449	-6453.4816	-6455.2870	-6456.9721	-6459.5326	-6459.5107	-6461.2614	-6462.2243	-6463.9532	-6463.7453	-6462.9246	-6466.2182	-6467.0060	-6467.5969	-6468.2972	-6469.2054	-6471.7549	-6472.9038	-6473.1007	-6474.3810	-6474.7858	-6476.6022	-6476.6241	-6480.8696	-6482.9377	-6484.7540	-6486.0890	-6483.3206	-6488.4962	-6490.6846	-6491.6147	-6486.4282	-6488.6056	-6492.7418	-6493.1466	-6495.7946	-6496.5824	-6497.0858	-6498.1471	-6501.8237	-6501.4188
-6490.1704	-6493.1904	-6493.8907	-6494.7551	-6496.6809	-6465.3209	-6337.5832	-6331.4118	-6332.7687	-6334.9790	-6335.8981	-6340.6251	-6343.8311	-6345.9539	-6351.3702	-6401.1676	-6463.2857	-6512.9955	-6519.9656	-6519.5389	-6521.2896	-6524.3315	-6524.0470	-6525.7102	-6525.7759	-6528.3691	-6529.6056	-6530.9734	-6531.1156	-6443.0319	-6367.1487	-6365.6168	-6367.7505	-6372.8276	-6371.0550	-6373.9327	-6376.4822	-6378.6159	-6382.3691	-6413.2914	-6476.9086	-6537.3088	-6553.9736	-6554.2143	-6555.1882	-6556.5340	-6559.2148	-6559.1164	-6561.0093	-6561.8738	-6561.8847	-6465.3209	-6398.0381	-6398.1913	-6399.9092	-6401.0034	-6403.4873	-6403.7061	-6406.0368	-6409.2100	-6409.7571	-6413.5212	-6410.7747	-6411.3984	-6416.4099	-6417.5369	-6417.3837	-6420.0207	-6425.7544	-6426.2249	-6425.4699	-6426.4437	-6429.9561	-6430.4704	-6431.2473	-6432.3634	-6433.2278	-6434.2673	-6433.9938	-6432.7901	-6436.2588	-6438.4691	-6438.8520	-6439.3444	-6439.3007	-6443.0210	-6446.0082	-6449.6190	-6450.1224	-6452.2889	-6452.5515	-6454.4336	-6456.3922	-6454.8494	-6452.1685	-6454.8931	-6455.6919	-6460.3970	-6459.8061	-6463.1434	-6462.7167	-6462.6073	-6464.5440	-6465.8790	-6467.0279	-6468.0017	-6470.4199	-6470.9780	-6471.7986	-6473.4181	-6476.0332	-6476.4928	-6478.0137	-6477.4447	-6477.9262	-6482.2155	-6480.5195	-6482.6532	-6484.7650	-6485.7826	-6487.5005	-6489.7655	-6489.8312	-6490.9910	-6493.4858	-6494.8973	-6496.1119	-6497.2280
-6486.4282	-6487.0081	-6490.1266	-6491.5819	-6493.1247	-6487.6099	-6354.8935	-6326.9037	-6328.2386	-6331.0726	-6331.6635	-6336.3795	-6339.0604	-6339.1588	-6343.2512	-6384.2949	-6446.5662	-6502.5568	-6515.9608	-6516.5845	-6518.1274	-6519.4732	-6518.5322	-6520.9176	-6521.9133	-6523.6093	-6525.2178	-6527.2859	-6528.1065	-6424.9775	-6362.7171	-6362.4107	-6364.4569	-6368.1334	-6367.8818	-6370.8252	-6373.4403	-6374.2719	-6376.5041	-6377.7078	-6404.5705	-6466.7106	-6528.3473	-6549.8703	-6552.4745	-6554.1487	-6553.3608	-6555.9650	-6556.8951	-6557.8361	-6483.2659	-6394.9962	-6393.3768	-6395.7293	-6396.4406	-6397.3378	-6398.2570	-6399.2965	-6404.0015	-6405.5225	-6407.0325	-6408.1595	-6409.5492	-6406.4307	-6412.4707	-6413.8713	-6415.1406	-6417.5259	-6416.7928	-6419.0578	-6419.8676	-6423.3362	-6424.4413	-6424.5726	-6425.5684	-6428.1726	-6429.8248	-6429.4528	-6426.9799	-6427.3300	-6433.0090	-6433.3263	-6433.7749	-6434.2783	-6438.6441	-6438.5347	-6439.9900	-6439.3882	-6445.1219	-6446.0410	-6446.7194	-6447.7808	-6451.6433	-6454.1381	-6454.7728	-6455.9217	-6457.3441	-6456.0311	-6457.7162	-6458.1320	-6460.2110	-6460.7253	-6461.4912	-6461.6991	-6463.5811	-6465.1130	-6467.5203	-6466.1197	-6468.5379	-6470.8029	-6472.4004	-6473.1883	-6474.3481	-6474.9718	-6477.8387	-6478.0247	-6486.4172	-6526.8263	-6585.7384	-6605.7186	-6572.8049	-6505.6534	-6489.9187	-6489.4044	-6490.4986	-6490.0828	-6491.8117	-6492.5667
-6481.6465	-6483.4519	-6484.3930	-6487.1722	-6486.9862	-6489.0871	-6392.6656	-6323.3804	-6321.6406	-6322.2096	-6327.8666	-6330.8647	-6335.3291	-6337.1455	-6337.1236	-6365.7918	-6427.3300	-6488.1133	-6511.8138	-6512.4375	-6513.6083	-6513.9147	-6515.1073	-6516.6174	-6517.3942	-6517.9523	-6519.2872	-6521.5632	-6521.0927	-6390.6850	-6357.9683	-6358.2418	-6358.4497	-6362.8703	-6363.5815	-6366.7985	-6368.6258	-6371.5255	-6372.0616	-6374.6221	-6376.9746	-6403.7936	-6466.4480	-6526.9138	-6549.6186	-6549.4545	-6549.2247	-6552.3323	-6551.0630	-6435.5913	-6388.5513	-6389.4048	-6391.0133	-6392.8625	-6393.8692	-6392.1951	-6393.2127	-6395.4996	-6398.6071	-6401.1894	-6404.4830	-6405.4021	-6401.8788	-6404.0453	-6402.2399	-6411.4750	-6412.9631	-6414.0135	-6414.3090	-6416.2895	-6418.4232	-6419.6159	-6421.3557	-6422.3952	-6424.3757	-6423.5879	-6423.5331	-6424.9994	-6426.6079	-6428.0085	-6427.9319	-6428.4243	-6429.3543	-6433.2935	-6433.8187	-6434.9238	-6436.1822	-6437.0028	-6438.7317	-6439.4867	-6442.9444	-6446.5881	-6445.9753	-6448.0215	-6447.3540	-6450.0020	-6451.0196	-6452.9236	-6449.8488	-6453.3941	-6453.7223	-6454.3351	-6454.7509	-6457.5958	-6460.5830	-6461.0973	-6459.5982	-6460.3751	-6463.6249	-6465.6054	-6467.0498	-6469.5336	-6471.1093	-6473.7244	-6484.9401	-6522.6793	-6584.1846	-6638.4902	-6647.5064	-6647.1234	-6648.2395	-6650.0450	-6613.4547	-6528.8506	-6484.0866	-6483.2659	-6486.3844	-6487.1066
-6477.6526	-6479.0860	-6479.9724	-6481.7669	-6483.1565	-6486.0999	-6411.5297	-6320.7652	-6319.8132	-6322.7129	-6325.5360	-6326.2691	-6330.9960	-6333.2173	-6334.3771	-6341.3035	-6391.7136	-6454.0725	-6504.0449	-6508.1482	-6509.6910	-6511.0478	-6511.1244	-6512.7001	-6514.5931	-6515.1621	-6516.8253	-6519.0684	-6459.4122	-6355.9987	-6354.7075	-6356.9397	-6355.7908	-6357.1148	-6359.8831	-6361.7214	-6365.3870	-6366.2514	-6367.8708	-6370.1140	-6370.6392	-6372.4665	-6376.2962	-6407.9079	-6470.3871	-6512.9846	-6488.7260	-6433.3701	-6382.7630	-6382.4676	-6383.4195	-6385.6408	-6387.1398	-6389.6674	-6389.0875	-6386.4505	-6388.2668	-6391.5932	-6394.2631	-6397.2503	-6394.6023	-6401.0800	-6401.0144	-6402.8526	-6399.2308	-6406.7042	-6405.9492	-6406.8574	-6410.7528	-6412.8318	-6413.5321	-6414.4403	-6414.6810	-6414.5716	-6417.0445	-6417.5041	-6418.6311	-6420.4365	-6420.2177	-6420.9180	-6419.4080	-6423.6207	-6427.1987	-6426.4109	-6428.0522	-6430.0765	-6431.0066	-6432.1336	-6434.6941	-6431.8054	-6437.0138	-6437.9001	-6439.3116	-6437.3311	-6440.9748	-6441.4891	-6439.3992	-6444.8483	-6446.3145	-6449.0829	-6449.2142	-6451.3588	-6451.6652	-6455.1010	-6455.7904	-6455.7794	-6457.4864	-6459.4450	-6461.3380	-6462.7605	-6464.5550	-6465.7367	-6466.8638	-6474.1731	-6522.4823	-6585.1585	-6637.2975	-6643.2500	-6642.4184	-6643.2718	-6645.1101	-6643.9393	-6645.4165	-6642.2542	-6545.4716	-6480.1474	-6480.5851	-6481.9200
-6474.1402	-6472.4880	-6474.2497	-6476.6022	-6478.9985	-6479.7097	-6391.1446	-6314.7361	-6314.5063	-6316.4103	-6318.3580	-6322.0783	-6325.2296	-6327.5384	-6326.9584	-6330.2301	-6350.6261	-6410.0963	-6472.5646	-6503.2133	-6505.2814	-6506.3209	-6506.9336	-6507.9622	-6509.0454	-6510.5883	-6513.0721	-6500.7076	-6368.3960	-6348.5800	-6350.6699	-6350.4729	-6350.4182	-6352.3769	-6357.0053	-6358.8874	-6358.7561	-6362.5858	-6364.5991	-6365.2666	-6367.5207	-6369.0526	-6371.3613	-6372.0616	-6373.0464	-6374.2610	-6376.8324	-6377.5327	-6380.3557	-6380.0603	-6382.4457	-6384.6231	-6385.0389	-6386.4286	-6386.1550	-6386.6802	-6383.7697	-6387.5009	-6390.0504	-6393.1798	-6394.2412	-6395.8059	-6396.7360	-6397.8083	-6396.0576	-6396.9877	-6400.4782	-6401.5286	-6402.7542	-6401.9554	-6404.2642	-6408.2690	-6413.4664	-6415.8846	-6413.8166	-6412.7661	-6413.4993	-6416.1363	-6413.5540	-6415.7205	-6413.2367	-6420.5897	-6419.3970	-6422.2858	-6424.0037	-6426.0608	-6426.4984	-6427.3300	-6429.4747	-6431.8491	-6433.0856	-6432.7683	-6434.3877	-6436.3463	-6439.9353	-6444.4434	-6444.2574	-6445.4720	-6446.1285	-6448.0543	-6447.8464	-6446.6428	-6448.7656	-6450.6914	-6450.2537	-6452.9345	-6455.4621	-6455.1010	-6456.3484	-6458.0335	-6460.8347	-6463.3951	-6465.1677	-6502.8851	-6565.7144	-6623.7293	-6637.6038	-6636.5534	-6636.4768	-6639.8470	-6640.2081	-6640.1862	-6640.2190	-6643.4469	-6625.7973	-6504.8656	-6475.5518	-6476.0770
-6467.7501	-6470.4090	-6472.2144	-6474.5232	-6475.5189	-6475.6174	-6355.6376	-6310.7094	-6312.2632	-6312.2523	-6315.3270	-6317.1324	-6320.2509	-6322.4284	-6324.7153	-6327.1116	-6328.9389	-6352.2674	-6411.0701	-6473.8339	-6502.6115	-6503.3227	-6504.5482	-6504.8546	-6505.9379	-6508.5093	-6500.4340	-6371.9413	-6344.0171	-6345.4396	-6347.0152	-6349.0067	-6347.8906	-6350.3635	-6352.0814	-6353.4929	-6355.2109	-6356.6005	-6360.5068	-6361.4588	-6363.5925	-6364.7742	-6367.0064	-6366.2952	-6369.2605	-6371.3723	-6370.2343	-6372.5540	-6373.4622	-6375.6069	-6378.9333	-6380.6183	-6379.9399	-6380.2901	-6380.8372	-6381.2639	-6382.4238	-6383.2226	-6385.9800	-6387.7416	-6389.8972	-6390.6632	-6392.4795	-6394.9087	-6395.1166	-6391.9324	-6393.6832	-6398.4977	-6401.8788	-6403.1371	-6403.2137	-6408.2252	-6409.3413	-6409.1224	-6408.7395	-6411.1467	-6412.5801	-6410.7637	-6410.4027	-6412.7880	-6415.6877	-6415.3266	-6416.5849	-6417.6573	-6419.2001	-6423.0845	-6422.3733	-6425.1963	-6427.2316	-6427.1440	-6430.5361	-6430.9190	-6449.0063	-6503.5197	-6566.1740	-6605.3138	-6607.9289	-6608.9137	-6557.7595	-6458.8870	-6441.9268	-6442.1675	-6444.3121	-6444.8811	-6445.6361	-6448.9844	-6447.4197	-6450.2537	-6449.7285	-6454.3788	-6455.4183	-6455.4512	-6471.7330	-6529.2883	-6592.0082	-6629.5614	-6630.0976	-6632.8003	-6633.7085	-6633.3255	-6634.0805	-6634.5838	-6637.3084	-6639.0810	-6638.4573	-6589.6338	-6479.9395	-6471.9518
-6464.5659	-6467.7391	-6469.6649	-6471.6892	-6471.6783	-6467.6844	-6336.1388	-6307.7004	-6308.7289	-6309.0025	-6311.4644	-6312.9416	-6314.4845	-6317.1543	-6317.1981	-6322.1549	-6321.8156	-6324.2010	-6330.6021	-6379.2834	-6442.9772	-6494.2627	-6499.8213	-6500.8061	-6500.0729	-6445.2860	-6344.7721	-6337.8458	-6341.0190	-6341.5661	-6342.8791	-6344.1046	-6345.1113	-6345.9101	-6345.0566	-6349.9805	-6352.7161	-6353.6899	-6356.6552	-6357.2898	-6358.4606	-6359.5111	-6362.5530	-6363.4065	-6366.1420	-6367.1268	-6368.2866	-6368.3195	-6370.8142	-6372.4008	-6374.0750	-6374.2391	-6374.8519	-6375.7163	-6377.4233	-6376.6683	-6378.1126	-6378.7910	-6382.7411	-6382.1940	-6384.0542	-6387.0851	-6387.6322	-6389.0547	-6392.1951	-6395.6965	-6389.1094	-6394.3178	-6398.3226	-6400.1937	-6400.6314	-6399.0229	-6400.7189	-6403.9250	-6404.5596	-6403.5201	-6404.0234	-6404.6690	-6406.1353	-6410.5449	-6412.1425	-6411.4750	-6413.6525	-6415.1515	-6416.2786	-6417.9308	-6419.6925	-6421.7058	-6423.3581	-6422.9204	-6427.2753	-6454.5867	-6514.8119	-6576.4048	-6600.0616	-6600.7728	-6602.4251	-6601.2324	-6602.0640	-6601.6701	-6528.4786	-6441.6423	-6436.8715	-6438.2721	-6440.4496	-6441.7189	-6443.6337	-6444.0167	-6445.9206	-6445.8659	-6447.7808	-6449.4987	-6485.2355	-6548.1305	-6607.3490	-6624.7469	-6626.6946	-6627.0885	-6627.8763	-6629.5833	-6629.7365	-6631.6623	-6632.9535	-6630.9511	-6633.8288	-6629.7693	-6502.0863	-6467.6188
-6461.2505	-6463.0669	-6463.6796	-6465.8352	-6466.9075	-6403.1590	-6301.4743	-6297.8416	-6303.5096	-6305.0743	-6306.4749	-6308.3897	-6309.2104	-6312.8650	-6315.9835	-6316.5087	-6317.8874	-6320.1415	-6321.0606	-6322.7567	-6323.4570	-6337.9333	-6356.6552	-6335.8434	-6333.3486	-6335.2087	-6336.1716	-6336.4780	-6336.8063	-6339.9357	-6340.7126	-6340.4062	-6340.8220	-6340.7454	-6344.4110	-6347.6608	-6347.3435	-6350.1447	-6348.1970	-6355.4078	-6356.4911	-6356.9835	-6357.6947	-6360.5068	-6361.1196	-6363.1876	-6363.7566	-6365.2666	-6363.3408	-6362.9250	-6367.0502	-6370.5626	-6370.3109	-6372.4993	-6372.8385	-6375.0269	-6376.8433	-6374.9175	-6378.5503	-6379.3053	-6381.9642	-6381.2530	-6384.6122	-6387.0960	-6388.8140	-6388.5185	-6389.9410	-6379.4257	-6390.7945	-6394.4710	-6385.7830	-6375.6835	-6384.5575	-6398.7603	-6398.4430	-6398.8807	-6401.6490	-6401.0691	-6404.2642	-6404.9645	-6407.8203	-6408.4112	-6410.1291	-6410.8403	-6413.3570	-6415.3375	-6416.2676	-6418.3904	-6419.0250	-6422.1435	-6446.9929	-6508.0059	-6569.9052	-6595.4112	-6595.4331	-6596.3741	-6597.7309	-6598.7376	-6599.0768	-6600.4555	-6599.2409	-6519.1997	-6433.9609	-6435.0004	-6436.6199	-6437.4296	-6438.5566	-6438.9396	-6441.5438	-6443.3711	-6444.4434	-6448.9188	-6493.9454	-6557.1358	-6611.9447	-6622.8211	-6623.1822	-6623.5980	-6624.0247	-6625.2831	-6626.5414	-6627.5918	-6628.5438	-6628.6642	-6631.2356	-6631.5419	-6530.9515	-6464.7519
-6459.4122	-6458.6572	-6461.2176	-6461.5021	-6419.1235	-6301.8901	-6298.3996	-6299.4719	-6301.1789	-6301.0695	-6303.6518	-6305.6870	-6308.4226	-6310.3046	-6311.0268	-6312.4273	-6315.8850	-6316.7276	-6317.3950	-6318.3361	-6320.0868	-6322.0892	-6323.8509	-6327.2429	-6328.4247	-6331.8386	-6332.3529	-6332.8890	-6333.5455	-6337.2002	-6337.4190	-6336.6969	-6337.8896	-6338.5132	-6340.8767	-6342.2664	-6343.4372	-6346.5119	-6349.4881	-6348.0329	-6349.9258	-6352.9130	-6353.1866	-6355.3422	-6354.8388	-6355.9002	-6359.9378	-6362.2028	-6361.4697	-6362.9031	-6365.8356	-6365.3651	-6366.6125	-6366.9955	-6368.0897	-6370.4860	-6371.4489	-6370.8690	-6373.1668	-6375.0598	-6377.3467	-6375.0488	-6378.6925	-6382.2378	-6382.5879	-6386.0675	-6385.1374	-6378.0907	-6383.2335	-6391.0461	-6399.8436	-6427.4504	-6444.2027	-6446.9492	-6433.7421	-6406.1462	-6399.9420	-6401.0691	-6403.4654	-6401.2551	-6402.6338	-6405.8070	-6405.3474	-6407.6124	-6408.7176	-6409.9322	-6413.5102	-6414.3965	-6416.4974	-6426.4000	-6480.9900	-6543.8522	-6587.1281	-6592.5444	-6592.1833	-6591.8441	-6593.2337	-6593.7918	-6595.4550	-6596.1553	-6595.9693	-6586.9639	-6475.3548	-6431.9585	-6431.1269	-6432.2759	-6434.6394	-6436.4339	-6438.4034	-6438.8958	-6439.5305	-6449.7504	-6502.3161	-6566.1083	-6612.5793	-6617.8096	-6617.4595	-6618.2692	-6619.6588	-6621.3549	-6622.3615	-6623.1603	-6624.4515	-6625.7317	-6626.2788	-6628.0076	-6586.3512	-6466.0540
-6453.8208	-6454.0615	-6454.5211	-6367.5207	-6292.2064	-6291.8234	-6294.6355	-6295.3249	-6294.7668	-6296.9115	-6298.5309	-6300.5114	-6302.9187	-6302.6670	-6305.8512	-6308.5648	-6311.3113	-6311.3113	-6311.4644	-6315.8303	-6317.5592	-6318.1938	-6319.4740	-6322.5269	-6325.1420	-6327.3414	-6326.9256	-6327.1226	-6330.8429	-6330.8319	-6329.7377	-6332.1012	-6333.3376	-6337.0580	-6337.1455	-6337.9552	-6339.9795	-6341.2050	-6341.4676	-6343.5575	-6348.2079	-6348.7222	-6349.7508	-6352.6504	-6352.7817	-6355.1561	-6356.9178	-6358.6029	-6358.0558	-6359.2047	-6362.1919	-6363.1329	-6364.1943	-6366.0435	-6366.6453	-6368.1663	-6368.3413	-6368.3742	-6371.7771	-6372.4227	-6373.9765	-6374.5127	-6376.3947	-6378.4628	-6380.4761	-6381.3296	-6382.5879	-6371.9741	-6392.9938	-6434.6175	-6496.1119	-6551.6539	-6561.2172	-6559.9151	-6559.0507	-6551.0192	-6483.5395	-6402.6557	-6393.6613	-6395.8059	-6398.8807	-6399.1542	-6399.7123	-6399.6028	-6401.0800	-6403.8265	-6406.9887	-6409.7680	-6412.4817	-6440.3730	-6501.5501	-6562.8148	-6585.8260	-6585.5962	-6585.5962	-6586.7670	-6587.8065	-6588.9882	-6589.6995	-6589.8308	-6591.4830	-6592.5006	-6559.8385	-6430.7440	-6426.3124	-6430.1093	-6429.5622	-6431.7069	-6432.5494	-6433.3591	-6435.5147	-6443.4587	-6491.4178	-6555.5602	-6607.7539	-6613.3781	-6613.5203	-6614.7021	-6616.7373	-6616.1355	-6617.0109	-6617.4704	-6620.4686	-6620.2497	-6620.6108	-6621.2783	-6562.6507	-6460.6049
-6433.1403	-6376.4275	-6298.2902	-6285.4770	-6287.6873	-6287.7420	-6290.1383	-6292.0423	-6291.9766	-6293.0599	-6295.1826	-6296.8568	-6298.8373	-6300.3582	-6301.2883	-6305.2493	-6306.5077	-6307.8754	-6308.6742	-6310.6876	-6312.3398	-6313.5325	-6314.7361	-6318.6096	-6316.5853	-6321.8375	-6323.2709	-6325.1202	-6324.4636	-6324.6059	-6326.9475	-6327.4399	-6330.3395	-6331.8167	-6331.4228	-6333.5237	-6336.4671	-6336.6640	-6338.3163	-6339.3996	-6342.9776	-6344.2141	-6343.7326	-6348.8644	-6348.5471	-6348.4377	-6352.6613	-6352.4097	-6353.8212	-6354.9592	-6357.5196	-6355.5719	-6359.6205	-6361.0211	-6362.3451	-6362.6624	-6363.9754	-6366.2623	-6367.2362	-6367.7395	-6370.2562	-6371.2957	-6374.5017	-6376.3072	-6376.9199	-6378.3643	-6381.1107	-6395.8935	-6449.9801	-6512.2734	-6551.4460	-6553.7547	-6553.4155	-6554.6301	-6555.8447	-6557.0045	-6556.7200	-6527.0233	-6406.3432	-6389.4377	-6392.0200	-6394.8977	-6396.8017	-6398.0819	-6397.6004	-6400.5329	-6401.4411	-6404.4392	-6405.4240	-6444.1152	-6506.5616	-6565.2877	-6582.1166	-6579.9063	-6581.2193	-6583.0904	-6584.6114	-6583.7798	-6584.7099	-6585.2460	-6587.3360	-6588.8131	-6584.1846	-6453.0986	-6422.7453	-6423.1283	-6425.8529	-6428.4680	-6432.1774	-6430.2625	-6430.1640	-6435.6460	-6472.2691	-6536.4334	-6594.8860	-6609.8766	-6609.0122	-6610.6207	-6611.7806	-6611.9994	-6612.5356	-6614.8990	-6616.9999	-6616.8139	-6616.8248	-6619.5166	-6529.3320	-6454.6852
-6280.6516	-6283.4527	-6284.2296	-6285.7943	-6287.1512	-6287.6107	-6289.2849	-6289.6350	-6290.2806	-6292.9067	-6287.8733	-6291.6155	-6296.1565	-6298.7935	-6300.1722	-6300.4130	-6299.6580	-6302.9734	-6305.0086	-6308.0068	-6307.5362	-6308.3897	-6308.1709	-6307.7004	-6311.5739	-6316.2790	-6321.9141	-6322.3190	-6321.9251	-6322.9427	-6324.6387	-6325.3062	-6324.7809	-6323.4898	-6328.0198	-6331.4775	-6332.2325	-6332.6811	-6333.5346	-6336.5656	-6338.5789	-6338.9400	-6341.1722	-6343.9515	-6344.1265	-6345.8663	-6346.5666	-6349.4663	-6352.6395	-6353.7118	-6354.5872	-6352.0705	-6355.9877	-6357.8151	-6357.0819	-6358.3622	-6359.3141	-6362.0825	-6362.5639	-6364.7195	-6366.1420	-6367.5535	-6370.1687	-6372.9261	-6374.0750	-6376.2853	-6383.7040	-6434.5737	-6496.2432	-6543.8084	-6547.9226	-6547.5615	-6549.9469	-6551.3475	-6551.6867	-6550.9317	-6552.8247	-6553.1967	-6520.3158	-6397.7427	-6390.0285	-6390.4334	-6389.0328	-6394.4272	-6393.8364	-6396.7141	-6397.9944	-6399.8654	-6400.9597	-6444.6732	-6507.6339	-6564.4561	-6577.0614	-6576.2407	-6578.3635	-6578.3963	-6579.9172	-6580.4753	-6581.3944	-6584.1737	-6584.8631	-6585.1585	-6585.9244	-6492.4135	-6420.4803	-6418.9156	-6421.8481	-6423.4456	-6427.8224	-6427.8224	-6426.6079	-6432.9433	-6457.6068	-6520.7097	-6582.9044	-6605.5217	-6607.4037	-6607.9071	-6608.3776	-6608.2463	-6610.0517	-6611.7149	-6611.8462	-6612.4808	-6614.1112	-6613.5532	-6496.8450	-6448.8312
-6277.0516	-6278.1021	-6279.8528	-6280.5203	-6282.1835	-6282.5227	-6284.5360	-6284.5579	-6283.9014	-6284.5251	-6287.2387	-6290.2697	-6291.1122	-6293.9681	-6295.6094	-6297.7978	-6298.0714	-6300.6865	-6302.7874	-6302.2731	-6302.3169	-6306.4530	-6308.9697	-6310.4140	-6312.1100	-6315.2176	-6316.4978	-6315.1629	-6317.0230	-6319.8461	-6321.7062	-6322.0564	-6324.3433	-6325.8970	-6325.4922	-6325.1639	-6327.5602	-6330.6459	-6330.3395	-6334.1364	-6335.0665	-6334.9242	-6338.3163	-6338.8634	-6340.6141	-6343.6123	-6351.7203	-6392.4577	-6454.2804	-6507.2509	-6518.3681	-6486.4172	-6396.5500	-6355.2984	-6353.0990	-6354.0072	-6354.8498	-6357.3008	-6358.3950	-6360.2661	-6361.3165	-6363.2423	-6366.2623	-6368.2319	-6369.9826	-6370.5735	-6394.7993	-6455.0901	-6515.9937	-6542.8346	-6544.1038	-6545.0230	-6546.5877	-6545.9640	-6546.0187	-6547.8241	-6549.1153	-6550.8442	-6550.8332	-6459.5763	-6383.7915	-6385.8705	-6387.0413	-6389.4048	-6389.9848	-6392.0419	-6392.7312	-6394.0880	-6405.4459	-6461.2724	-6524.6270	-6569.1174	-6572.5751	-6572.8705	-6574.4134	-6575.1574	-6574.0195	-6575.5076	-6578.0024	-6578.1227	-6579.4358	-6580.1689	-6582.1932	-6502.7866	-6414.8451	-6415.7096	-6417.9746	-6420.8523	-6420.4475	-6422.3186	-6420.7101	-6426.9142	-6433.3372	-6480.6289	-6545.0449	-6595.9145	-6601.0136	-6602.5017	-6603.1035	-6604.1102	-6605.5107	-6604.5807	-6605.7186	-6607.6882	-6609.4171	-6526.6731	-6442.8568	-6446.1504
-6273.2110	-6273.4955	-6275.7933	-6277.1282	-6278.8571	-6276.5045	-6276.9203	-6279.1087	-6281.9646	-6284.1859	-6284.4375	-6286.1773	-6286.5603	-6287.5779	-6291.2216	-6293.6726	-6293.8149	-6295.6860	-6296.4082	-6298.1808	-6300.9163	-6302.8530	-6302.9953	-6305.3588	-6306.7594	-6307.2736	-6310.4359	-6310.9721	-6311.9350	-6314.5282	-6313.8717	-6316.9245	-6318.7847	-6321.4764	-6321.1044	-6320.4041	-6323.1615	-6324.5730	-6328.1073	-6327.8447	-6329.9128	-6334.1364	-6334.7492	-6336.9157	-6338.3819	-6370.3437	-6431.5099	-6489.9844	-6509.6035	-6510.9931	-6512.8314	-6513.4551	-6512.8642	-6482.1061	-6375.6397	-6348.6128	-6348.7113	-6350.2103	-6352.1799	-6354.8388	-6354.3683	-6357.6181	-6360.7038	-6362.7718	-6365.6934	-6368.9760	-6411.9674	-6473.5931	-6528.0409	-6538.4577	-6537.5824	-6540.2522	-6541.5762	-6541.9154	-6543.2504	-6544.1476	-6544.4212	-6546.2047	-6546.9269	-6522.9856	-6398.3336	-6380.2901	-6381.4499	-6384.9842	-6386.9647	-6389.3392	-6386.6037	-6391.4182	-6402.3712	-6455.8560	-6519.0356	-6563.8105	-6567.8700	-6568.8986	-6568.8439	-6570.4195	-6572.3782	-6573.2863	-6572.9581	-6573.4724	-6576.1969	-6577.7179	-6577.4443	-6479.7645	-6410.6762	-6410.0744	-6412.6239	-6415.6767	-6417.1867	-6420.2615	-6418.4670	-6422.2748	-6425.3933	-6434.3220	-6491.0786	-6554.7942	-6596.7133	-6598.4422	-6600.5759	-6600.1601	-6601.3856	-6601.9327	-6602.5673	-6605.2153	-6580.4862	-6452.5187	-6439.5305	-6441.3797
-6268.7138	-6269.9393	-6270.4864	-6269.6438	-6270.7928	-6272.5982	-6274.3599	-6275.2243	-6277.0516	-6278.8680	-6279.6887	-6281.0345	-6283.1901	-6283.6059	-6286.7682	-6286.7025	-6289.4928	-6293.3225	-6292.3377	-6294.2963	-6296.1565	-6296.8458	-6298.5090	-6301.5509	-6303.0391	-6303.7065	-6304.9101	-6308.4773	-6311.3331	-6311.2894	-6310.8517	-6313.1276	-6316.6291	-6315.0316	-6318.5002	-6319.3099	-6321.3123	-6322.6472	-6324.2667	-6325.0436	-6328.5013	-6330.8319	-6331.9699	-6333.5237	-6361.2618	-6422.0779	-6482.2592	-6503.8370	-6506.1239	-6508.2248	-6506.9227	-6508.9032	-6509.2643	-6511.4746	-6500.6857	-6400.7955	-6345.9429	-6345.6803	-6348.3392	-6349.8274	-6351.0200	-6352.1033	-6357.8588	-6359.1281	-6360.0363	-6368.8228	-6419.5283	-6481.1322	-6528.7302	-6534.2122	-6534.5295	-6536.1818	-6536.2912	-6537.9544	-6537.8231	-6539.3987	-6539.3222	-6540.4492	-6541.7951	-6539.8693	-6406.9669	-6376.0008	-6378.3643	-6382.5332	-6380.5308	-6384.1417	-6382.5223	-6386.1222	-6393.7051	-6433.6436	-6496.9216	-6553.1748	-6564.1169	-6564.6093	-6563.9746	-6564.9923	-6567.2244	-6566.4585	-6567.9028	-6568.9205	-6570.6712	-6573.6146	-6572.9909	-6461.2067	-6408.4003	-6408.4878	-6405.6429	-6410.5121	-6411.5516	-6415.7752	-6412.1972	-6414.5388	-6418.4451	-6422.2529	-6443.3602	-6505.4783	-6567.1916	-6595.1486	-6596.3413	-6596.9759	-6596.3741	-6597.5230	-6600.1820	-6565.1126	-6441.1280	-6434.4205	-6437.2654	-6438.3597
-6262.3236	-6266.1643	-6266.9193	-6268.4074	-6269.2937	-6270.4645	-6272.1168	-6271.9636	-6272.6091	-6276.0340	-6276.7015	-6274.8742	-6277.9708	-6280.1701	-6282.6321	-6282.6649	-6283.6388	-6285.0722	-6288.0046	-6289.6678	-6288.8472	-6293.2459	-6294.4386	-6297.7212	-6302.0105	-6325.8533	-6326.9912	-6332.5717	-6316.7385	-6306.3764	-6307.7660	-6309.3417	-6309.8450	-6310.9064	-6314.0468	-6314.5063	-6315.4911	-6316.3556	-6317.9312	-6319.2224	-6322.5378	-6324.5621	-6327.4399	-6340.3515	-6395.4230	-6458.0663	-6497.3921	-6499.3398	-6501.3203	-6500.8170	-6501.9769	-6503.3665	-6503.5853	-6505.2923	-6506.3756	-6482.2921	-6351.1076	-6341.0846	-6342.1788	-6344.7393	-6345.5271	-6347.7702	-6350.7574	-6352.9130	-6355.0686	-6367.0939	-6421.2572	-6483.0690	-6525.8853	-6529.9557	-6529.3539	-6531.1594	-6531.5861	-6533.6213	-6534.3435	-6535.0438	-6535.6018	-6536.4006	-6538.9939	-6537.6042	-6433.1293	-6372.6306	-6372.1492	-6374.0640	-6377.5655	-6379.2287	-6380.1369	-6379.8633	-6385.8596	-6408.8489	-6469.1835	-6531.8815	-6558.3832	-6559.1054	-6559.0507	-6562.7382	-6561.7206	-6563.2525	-6564.2044	-6566.0974	-6567.1807	-6566.6664	-6524.3315	-6407.8750	-6404.0563	-6403.2465	-6405.4131	-6409.1334	-6410.2932	-6411.3765	-6410.7309	-6412.4269	-6417.3837	-6418.9156	-6420.6773	-6425.5684	-6469.6212	-6532.3411	-6584.7536	-6594.1638	-6595.0939	-6589.2399	-6480.0818	-6430.1859	-6432.1336	-6433.9609	-6434.0485	-6433.1403
-6259.9820	-6261.8203	-6262.2361	-6263.1224	-6265.4202	-6266.8646	-6266.8317	-6268.8451	-6269.2609	-6269.1077	-6273.0031	-6271.9964	-6273.4517	-6277.3252	-6276.3185	-6280.1592	-6281.6911	-6282.6430	-6282.9056	-6284.7658	-6287.3809	-6290.1274	-6298.3777	-6343.0214	-6406.9450	-6458.9198	-6465.3319	-6466.3714	-6466.9075	-6438.0642	-6335.7230	-6303.4877	-6302.9843	-6306.3983	-6308.6523	-6309.4183	-6310.1076	-6308.5648	-6312.3617	-6316.8479	-6319.1458	-6320.2619	-6324.0150	-6365.2228	-6428.2164	-6483.0908	-6493.1685	-6494.3502	-6496.3855	-6496.7137	-6498.1362	-6498.9350	-6500.2808	-6500.3903	-6501.7908	-6504.5811	-6421.9465	-6335.5698	-6336.0841	-6340.1217	-6342.6822	-6343.4262	-6346.2821	-6348.9520	-6350.9216	-6362.1044	-6417.7448	-6480.1255	-6521.6507	-6525.1084	-6525.8196	-6526.1260	-6526.4324	-6527.4391	-6528.9600	-6529.6275	-6532.2098	-6533.5776	-6533.2821	-6534.8250	-6419.9332	-6369.6872	-6369.8842	-6370.9565	-6373.8452	-6375.0707	-6377.0293	-6375.5740	-6381.0341	-6384.6888	-6421.2681	-6484.5899	-6541.4449	-6555.7900	-6556.4465	-6557.6173	-6558.0878	-6559.0617	-6560.4185	-6559.4774	-6561.3595	-6555.2976	-6427.8334	-6398.0600	-6398.4320	-6400.2375	-6401.7803	-6401.8241	-6404.9645	-6406.8027	-6405.3584	-6408.6957	-6411.8142	-6413.1710	-6415.6767	-6418.1168	-6418.9375	-6420.2068	-6422.2310	-6425.7434	-6424.5726	-6425.1963	-6427.2644	-6427.2206	-6429.1245	-6430.1531	-6431.0722	-6431.6740
-6253.2089	-6252.2897	-6253.0557	-6255.6708	-6258.2313	-6260.0258	-6261.1090	-6262.5424	-6262.9911	-6263.8883	-6266.3284	-6266.9630	-6266.6348	-6268.7466	-6271.5149	-6273.4955	-6275.9902	-6278.7039	-6278.0474	-6279.9075	-6283.1792	-6301.1461	-6355.4953	-6419.4080	-6457.4755	-6458.9198	-6460.0578	-6460.0468	-6462.2900	-6463.5921	-6460.7362	-6374.6221	-6297.9400	-6298.6622	-6301.4415	-6303.3345	-6304.5819	-6305.6761	-6308.7727	-6310.8626	-6313.1714	-6314.5939	-6323.1396	-6371.0331	-6434.2564	-6484.3492	-6490.7503	-6489.7436	-6490.4439	-6492.6104	-6494.0439	-6494.8864	-6495.5976	-6495.3460	-6498.5629	-6500.3137	-6472.4223	-6341.3582	-6332.4951	-6334.1145	-6336.4671	-6337.4519	-6342.3211	-6344.2360	-6346.4134	-6353.5367	-6401.5505	-6464.4237	-6513.6083	-6519.8453	-6520.4361	-6522.3838	-6522.6793	-6523.3577	-6523.9376	-6525.1741	-6527.8658	-6528.2050	-6528.8506	-6523.5327	-6397.4472	-6364.8946	-6363.7019	-6366.4593	-6370.8580	-6370.7158	-6372.8714	-6371.2957	-6375.2677	-6378.9333	-6383.2773	-6423.4347	-6487.0628	-6541.9920	-6552.0150	-6553.1420	-6554.9803	-6555.8775	-6555.3742	-6557.5407	-6555.1006	-6460.9879	-6395.4011	-6393.8254	-6396.0795	-6398.2241	-6396.2983	-6398.7384	-6400.0733	-6403.7608	-6398.0819	-6404.3845	-6404.5705	-6410.6543	-6410.8294	-6414.3637	-6415.2062	-6414.4184	-6417.1649	-6418.2044	-6418.8281	-6421.1040	-6421.7824	-6422.6797	-6422.7016	-6425.3714	-6427.3738	-6427.6583
-6246.4795	-6250.2873	-6251.7098	-6254.6860	-6254.5328	-6257.0933	-6259.0957	-6260.0477	-6259.9382	-6263.0458	-6261.8640	-6264.6324	-6266.0220	-6268.1338	-6269.6986	-6270.7052	-6273.0359	-6275.7058	-6275.7714	-6278.6273	-6285.9147	-6334.2677	-6396.5828	-6448.3388	-6455.5278	-6454.6962	-6456.4031	-6457.8256	-6458.4931	-6459.8389	-6459.8499	-6460.6377	-6360.6381	-6296.6379	-6298.1151	-6299.1656	-6300.8069	-6300.8944	-6304.2427	-6307.7004	-6310.4359	-6310.9830	-6327.2210	-6386.8444	-6449.8926	-6483.8130	-6484.6774	-6485.1042	-6485.3230	-6488.5291	-6488.7479	-6489.3607	-6491.5600	-6492.8183	-6492.6542	-6492.8402	-6493.8250	-6378.1126	-6328.5778	-6327.5712	-6331.4666	-6333.3705	-6337.4409	-6339.7497	-6338.7540	-6344.4657	-6389.4267	-6452.5406	-6504.5264	-6514.9104	-6516.3657	-6516.8362	-6515.8733	-6517.4490	-6520.1407	-6520.5237	-6520.8301	-6523.1498	-6522.7777	-6491.1552	-6365.9778	-6359.8393	-6359.9707	-6361.2618	-6364.1505	-6364.8508	-6368.4726	-6367.0392	-6369.0745	-6372.6416	-6374.5783	-6376.5698	-6413.9917	-6477.3791	-6534.6718	-6549.2685	-6549.9360	-6549.7828	-6550.6034	-6545.1543	-6417.4931	-6386.5161	-6388.3325	-6390.8054	-6391.8558	-6391.6917	-6391.3853	-6393.6503	-6396.1014	-6398.0491	-6396.3530	-6398.7822	-6399.4387	-6403.9250	-6405.4787	-6407.7219	-6408.9692	-6412.0987	-6412.8427	-6413.0397	-6414.7467	-6416.2676	-6416.2348	-6418.0731	-6417.8542	-6421.3228	-6422.0450	-6419.4408
-6247.1032	-6283.6606	-6344.0609	-6377.0512	-6381.1545	-6334.5084	-6268.8232	-6251.2831	-6252.8587	-6255.8021	-6256.6337	-6256.9073	-6259.4349	-6257.7389	-6262.5315	-6263.3850	-6266.2080	-6269.5344	-6271.8760	-6272.8280	-6299.5266	-6359.5986	-6421.5198	-6447.1243	-6447.3759	-6448.9406	-6449.9473	-6451.6871	-6449.9801	-6453.2518	-6455.3418	-6456.5673	-6451.4464	-6334.1474	-6290.8277	-6292.4034	-6294.0228	-6296.4629	-6298.4434	-6302.5904	-6303.2907	-6303.8269	-6323.6539	-6383.4305	-6446.7632	-6477.4776	-6479.6332	-6480.2459	-6481.6137	-6482.7626	-6481.2635	-6484.0428	-6487.2598	-6487.7522	-6488.2336	-6489.5357	-6490.8159	-6392.1075	-6324.8685	-6324.5949	-6330.2739	-6331.0726	-6332.5608	-6334.8586	-6335.7558	-6337.8020	-6351.4577	-6408.2471	-6470.6607	-6510.0193	-6512.0217	-6511.8904	-6513.3566	-6514.5165	-6515.6654	-6516.9456	-6517.8100	-6518.8495	-6520.0860	-6433.5670	-6354.7185	-6355.7142	-6356.3379	-6355.8455	-6360.6928	-6361.9183	-6361.7323	-6361.0211	-6362.4326	-6368.9650	-6371.7662	-6372.9261	-6372.7948	-6381.1873	-6434.6065	-6497.0967	-6530.3278	-6478.6046	-6397.0205	-6380.9466	-6383.0147	-6385.0171	-6387.0523	-6387.9714	-6389.8644	-6389.3611	-6388.4638	-6389.5252	-6391.2978	-6391.3635	-6393.2346	-6393.3768	-6398.0162	-6400.3797	-6403.3779	-6404.5487	-6406.7480	-6407.8313	-6408.4769	-6410.3698	-6412.6348	-6412.4707	-6412.4160	-6411.0482	-6413.1272	-6416.8804	-6416.5959	-6416.9023
-6303.3783	-6364.7086	-6408.0282	-6411.3109	-6413.8275	-6413.8385	-6415.5017	-6376.9418	-6270.6615	-6248.3177	-6250.2326	-6251.3487	-6253.4715	-6255.8350	-6258.2203	-6259.9382	-6261.7765	-6265.1357	-6265.5077	-6272.5873	-6321.7828	-6382.5223	-6434.1798	-6443.2508	-6443.8745	-6443.3164	-6444.6842	-6445.4939	-6446.7522	-6449.6847	-6451.0087	-6451.8403	-6452.7157	-6396.8783	-6288.9128	-6287.2496	-6290.7949	-6293.0708	-6293.5632	-6297.7869	-6299.2859	-6300.7193	-6317.4716	-6375.2348	-6439.2241	-6473.3743	-6475.6721	-6477.0836	-6477.5542	-6476.9305	-6478.9110	-6480.2350	-6482.3796	-6482.5328	-6482.8611	-6485.7498	-6484.4039	-6365.1681	-6319.2224	-6319.5397	-6322.7238	-6324.3104	-6326.8818	-6331.3462	-6333.0313	-6334.2787	-6330.9195	-6349.4006	-6411.3984	-6472.9913	-6506.2552	-6508.5968	-6510.0193	-6509.8114	-6511.9013	-6512.7876	-6513.3676	-6513.4551	-6473.1883	-6353.3398	-6350.9653	-6351.9392	-6351.7860	-6353.2850	-6354.1932	-6357.9354	-6358.8436	-6357.9354	-6360.7257	-6365.8356	-6366.5031	-6367.3237	-6369.0745	-6371.7006	-6372.9808	-6372.9479	-6373.4951	-6375.2239	-6378.4409	-6377.2482	-6378.9661	-6381.4718	-6382.6426	-6384.9952	-6383.7259	-6384.8201	-6385.7939	-6383.7915	-6388.1903	-6387.1836	-6388.7592	-6391.1665	-6392.2716	-6393.2346	-6396.0248	-6399.7779	-6398.9135	-6400.0515	-6400.2265	-6399.8764	-6400.1828	-6402.1961	-6408.1158	-6410.8403	-6412.5801	-6412.6677	-6412.8756	-6414.2652
-6383.2335	-6401.6709	-6403.1043	-6405.5663	-6407.6781	-6407.8750	-6409.5164	-6411.1358	-6383.5508	-6256.3273	-6244.3567	-6246.9719	-6248.5366	-6249.8606	-6252.4976	-6256.0976	-6257.6623	-6259.7632	-6261.2732	-6283.8467	-6342.8682	-6403.4544	-6435.8320	-6437.0794	-6439.0818	-6439.3444	-6440.6247	-6441.2812	-6442.6161	-6443.7541	-6445.2860	-6445.7127	-6447.7808	-6435.2193	-6301.8245	-6281.3956	-6283.9233	-6288.0594	-6287.8296	-6292.6331	-6293.0818	-6296.5395	-6303.6299	-6353.1100	-6417.5150	-6466.1416	-6469.8291	-6470.4637	-6471.1640	-6472.9913	-6474.8624	-6475.4861	-6476.2521	-6477.8496	-6479.8192	-6479.6113	-6455.3855	-6324.6387	-6316.6072	-6316.5853	-6315.1738	-6320.1853	-6323.2053	-6326.0612	-6327.7900	-6327.3961	-6329.6721	-6331.0726	-6350.4948	-6411.2343	-6472.6740	-6504.5264	-6505.1610	-6505.8285	-6507.9293	-6508.6953	-6509.3956	-6442.2988	-6344.8815	-6346.0086	-6347.7812	-6348.1313	-6348.5362	-6349.4334	-6350.3197	-6352.9458	-6355.3859	-6353.5805	-6354.3136	-6358.9421	-6362.0825	-6362.8046	-6363.8113	-6366.9845	-6368.8228	-6369.3152	-6370.1030	-6372.7838	-6371.3066	-6373.2215	-6376.6026	-6377.0950	-6377.3138	-6378.1564	-6377.2154	-6379.3491	-6380.2244	-6382.0846	-6381.2420	-6381.9861	-6385.9909	-6386.7131	-6387.3039	-6388.3653	-6391.1556	-6392.0856	-6393.1361	-6396.3421	-6399.2746	-6401.4083	-6401.8788	-6403.4982	-6406.1681	-6405.3255	-6405.0192	-6407.5577	-6406.8574	-6408.9911
-6393.6175	-6395.8606	-6398.2679	-6399.5700	-6398.3336	-6402.6119	-6405.3474	-6406.9121	-6406.4854	-6373.8233	-6251.5785	-6241.3367	-6241.9057	-6245.8011	-6246.4904	-6250.1998	-6250.7359	-6253.5699	-6257.1589	-6287.1293	-6347.9891	-6407.2623	-6430.0218	-6432.9324	-6431.7944	-6434.1907	-6435.6898	-6436.4886	-6437.6156	-6438.2065	-6440.8216	-6442.8568	-6443.7760	-6435.7007	-6303.7612	-6277.9708	-6278.4960	-6280.5640	-6282.5774	-6286.1007	-6289.1536	-6291.2326	-6293.3553	-6328.7310	-6392.9063	-6451.8731	-6465.6382	-6465.9118	-6466.8747	-6467.9798	-6469.3914	-6470.1245	-6471.7549	-6473.8229	-6474.1621	-6474.4685	-6405.2052	-6311.2675	-6310.6547	-6311.1800	-6312.5258	-6313.7513	-6315.3270	-6319.2771	-6322.6472	-6322.3737	-6325.8423	-6321.4436	-6327.2648	-6349.3350	-6406.9669	-6468.7239	-6499.1429	-6503.0164	-6501.9222	-6489.2622	-6380.9575	-6337.5832	-6339.6841	-6341.5004	-6343.2949	-6343.9405	-6344.8268	-6343.6888	-6345.8444	-6346.4134	-6348.2736	-6348.1751	-6350.4729	-6353.4164	-6357.0601	-6358.7889	-6361.0758	-6361.6667	-6363.1876	-6364.7852	-6367.1377	-6367.1596	-6367.4441	-6370.3437	-6372.0835	-6372.2805	-6372.4118	-6373.7030	-6374.7096	-6376.4713	-6375.4975	-6378.2767	-6379.5351	-6378.1892	-6380.7825	-6382.5004	-6383.3867	-6385.4000	-6384.8201	-6388.3434	-6389.1313	-6391.0680	-6392.8735	-6395.5433	-6397.1299	-6397.4472	-6399.2089	-6399.7013	-6398.2679	-6397.5676	-6399.5481	-6401.0910
-6390.7288	-6392.2607	-6393.6285	-6395.1056	-6397.4363	-6399.1104	-6398.5962	-6400.0952	-6401.9554	-6403.2137	-6285.9475	-6235.4499	-6237.1350	-6241.5227	-6241.8291	-6244.2473	-6246.4138	-6249.4448	-6249.8606	-6278.5726	-6339.1698	-6399.4059	-6425.7216	-6427.4066	-6428.0850	-6428.9823	-6430.7987	-6431.2145	-6431.8929	-6433.4576	-6435.6023	-6436.8496	-6437.4733	-6421.0821	-6288.4095	-6274.2395	-6273.9003	-6278.0036	-6278.8790	-6281.1221	-6282.4242	-6285.0722	-6286.1445	-6294.8872	-6345.8116	-6410.1948	-6456.6110	-6460.9879	-6461.1958	-6462.3447	-6464.2158	-6466.6887	-6466.9513	-6469.2163	-6470.2120	-6469.7415	-6340.3843	-6306.3764	-6305.1946	-6307.0657	-6307.4815	-6310.5672	-6313.4450	-6315.3161	-6319.1458	-6320.8637	-6320.7652	-6319.3427	-6325.2077	-6326.9256	-6328.2934	-6327.9979	-6331.7182	-6335.4166	-6335.4385	-6333.6878	-6335.3948	-6337.4847	-6338.9181	-6339.0056	-6339.7716	-6340.9424	-6341.7412	-6341.8615	-6337.8020	-6342.5728	-6346.1836	-6347.8578	-6344.5970	-6348.8644	-6350.5386	-6352.3987	-6355.1999	-6356.5130	-6358.5372	-6361.1415	-6360.2770	-6361.5682	-6361.8417	-6361.8199	-6362.4764	-6364.5226	-6366.5359	-6369.7638	-6370.9784	-6369.2386	-6367.5097	-6372.4446	-6374.1516	-6372.2586	-6376.4385	-6378.4409	-6378.6050	-6380.7278	-6381.0779	-6382.9928	-6383.8025	-6384.5356	-6385.5204	-6385.0608	-6389.7769	-6389.6346	-6387.9824	-6390.8601	-6391.4182	-6393.3549	-6396.1670	-6397.6004
-6385.6736	-6386.7787	-6388.8905	-6390.2802	-6391.7683	-6394.2959	-6394.7008	-6396.5609	-6398.9573	-6400.4235	-6357.6838	-6235.9860	-6232.5940	-6235.1435	-6239.3234	-6239.5641	-6243.8534	-6245.8886	-6246.5342	-6264.3917	-6320.1196	-6381.2420	-6421.2463	-6422.4499	-6424.8900	-6425.7653	-6426.7173	-6426.7829	-6426.6954	-6430.2625	-6431.0175	-6430.5689	-6433.7530	-6412.1862	-6278.5945	-6270.1800	-6268.2542	-6273.4955	-6275.0164	-6277.4784	-6278.6163	-6280.6297	-6283.5184	-6284.5251	-6295.8501	-6350.1447	-6413.7728	-6455.8670	-6456.7205	-6458.0554	-6460.1344	-6462.1915	-6462.0164	-6463.7343	-6461.7538	-6332.4513	-6299.8877	-6301.2117	-6303.0938	-6303.0062	-6302.3169	-6305.9168	-6306.7703	-6309.2651	-6314.1124	-6314.0030	-6315.6443	-6315.9835	-6316.7604	-6320.0102	-6320.6011	-6323.1287	-6325.0436	-6326.7068	-6327.8119	-6329.6502	-6331.8714	-6332.0355	-6332.9656	-6334.2677	-6335.9419	-6335.9528	-6336.9595	-6335.4385	-6336.2373	-6340.7454	-6340.4938	-6341.4895	-6343.8967	-6344.3891	-6346.9605	-6347.8578	-6349.6851	-6351.7641	-6353.3069	-6354.4449	-6355.0358	-6358.9968	-6360.3099	-6360.8022	-6363.0454	-6362.9469	-6363.3189	-6366.1420	-6366.1201	-6366.1748	-6368.7353	-6367.0283	-6366.7547	-6369.7747	-6372.7400	-6372.2695	-6368.9103	-6374.6549	-6377.3467	-6378.8020	-6379.7539	-6381.4171	-6382.2378	-6382.9709	-6388.0808	-6400.6642	-6441.7736	-6430.3719	-6457.9569	-6420.7320	-6398.3883	-6393.4206
-6380.9794	-6381.8329	-6384.2621	-6386.8991	-6386.3301	-6387.9824	-6390.7507	-6390.9148	-6392.5890	-6393.0157	-6370.7267	-6239.2249	-6228.6001	-6229.6506	-6232.4846	-6233.4803	-6240.0346	-6238.3058	-6242.4856	-6253.7888	-6304.9977	-6366.2514	-6413.8822	-6418.7186	-6421.1368	-6421.5307	-6420.7429	-6423.4347	-6424.6602	-6424.9556	-6425.8966	-6427.7021	-6429.8905	-6404.2313	-6271.2086	-6265.5625	-6266.6348	-6269.1405	-6271.0554	-6272.2262	-6274.6772	-6277.8613	-6277.9270	-6279.9841	-6283.2996	-6292.4252	-6350.6261	-6413.4336	-6454.1053	-6456.6548	-6457.9788	-6459.2152	-6458.8432	-6435.2959	-6312.7447	-6295.7626	-6296.4847	-6299.9534	-6299.6798	-6298.2683	-6301.1898	-6301.8135	-6304.0676	-6306.6062	-6305.9168	-6311.4097	-6313.8936	-6313.9592	-6310.0529	-6315.6553	-6317.4279	-6319.7038	-6321.7500	-6321.7062	-6323.0302	-6325.4265	-6326.9584	-6327.5712	-6329.7705	-6331.7182	-6331.5103	-6330.4052	-6332.2325	-6333.4142	-6334.0051	-6335.5151	-6336.0622	-6336.8391	-6340.0780	-6341.0956	-6341.6755	-6343.7873	-6346.1946	-6347.3654	-6345.6365	-6352.1033	-6353.0990	-6354.5434	-6356.1628	-6356.9506	-6356.2613	-6358.7233	-6359.2266	-6358.5154	-6358.7342	-6361.1962	-6363.6581	-6363.2533	-6364.7305	-6365.5621	-6366.4046	-6367.6301	-6368.5055	-6372.3024	-6373.8561	-6374.2719	-6376.0446	-6378.8895	-6378.0360	-6395.3026	-6447.9449	-6509.9208	-6551.7086	-6554.8927	-6554.0392	-6554.6739	-6539.4863	-6471.3828
-6378.1673	-6379.1849	-6380.9685	-6380.7059	-6383.4742	-6385.4110	-6387.4243	-6387.4900	-6389.2845	-6391.3744	-6378.3752	-6243.5579	-6220.9516	-6223.9169	-6231.2153	-6232.2767	-6235.3952	-6238.3386	-6240.3738	-6241.7963	-6264.3041	-6324.3980	-6385.2031	-6413.4883	-6415.8518	-6415.9941	-6417.0226	-6418.5436	-6418.5326	-6420.0207	-6421.9684	-6423.4347	-6420.0317	-6291.9438	-6259.9492	-6262.4768	-6263.0020	-6264.4354	-6266.6020	-6267.1272	-6269.4578	-6272.7842	-6273.4845	-6275.2900	-6278.8790	-6280.2905	-6280.8157	-6307.0110	-6368.7900	-6428.9823	-6439.7384	-6393.1032	-6312.4711	-6289.8429	-6290.4994	-6291.3091	-6294.7340	-6296.5395	-6297.5571	-6296.6926	-6296.9881	-6297.4148	-6298.7169	-6301.9558	-6302.8421	-6307.6785	-6307.7770	-6309.9654	-6310.1076	-6309.9216	-6315.4364	-6315.7319	-6316.5416	-6318.5987	-6319.0692	-6320.6886	-6322.3190	-6321.8485	-6322.3409	-6324.4199	-6324.9451	-6325.8642	-6327.6806	-6330.0879	-6329.9565	-6328.5013	-6330.9851	-6333.9176	-6334.7273	-6335.8215	-6333.3376	-6340.7454	-6339.4652	-6342.2445	-6344.8268	-6345.6912	-6345.3302	-6343.4044	-6344.9144	-6347.3654	-6347.5405	-6348.9848	-6349.9039	-6353.0881	-6355.9987	-6355.8783	-6358.4606	-6359.8393	-6359.5439	-6361.8636	-6362.5420	-6364.6320	-6367.0283	-6369.6872	-6367.6958	-6371.0550	-6372.7400	-6375.9351	-6411.8251	-6473.8120	-6531.9910	-6548.6667	-6548.2071	-6548.0649	-6548.9840	-6550.5487	-6551.5226	-6548.8746
-6373.0136	-6374.6002	-6373.6701	-6375.3333	-6378.0907	-6379.9728	-6381.4937	-6382.0299	-6384.5465	-6386.1769	-6365.7590	-6232.4517	-6220.9954	-6220.4373	-6225.1643	-6227.1558	-6230.5916	-6232.6596	-6234.9137	-6236.2924	-6239.4218	-6282.7634	-6344.3563	-6398.8588	-6409.4398	-6411.1139	-6413.7728	-6412.5473	-6413.8275	-6415.2609	-6418.1715	-6418.8281	-6354.9701	-6254.9377	-6254.4344	-6258.4282	-6257.9905	-6258.0343	-6260.3759	-6264.5011	-6264.3260	-6268.1557	-6269.6110	-6271.0225	-6272.6967	-6274.7538	-6275.2024	-6277.4674	-6279.5136	-6280.6735	-6281.2096	-6282.9932	-6283.9780	-6285.6849	-6286.2320	-6289.2411	-6290.4228	-6292.2721	-6291.1669	-6292.2830	-6290.7402	-6293.3006	-6295.6860	-6297.6993	-6300.6318	-6301.8573	-6301.7588	-6301.8573	-6304.1333	-6304.1442	-6307.2189	-6308.3460	-6307.9411	-6309.0462	-6309.2651	-6310.8845	-6317.8984	-6319.9446	-6322.2643	-6320.7980	-6320.5354	-6322.3080	-6324.1682	-6324.4527	-6322.4065	-6325.2077	-6327.6587	-6328.9280	-6327.6806	-6330.2958	-6333.5784	-6334.0379	-6334.6835	-6336.6093	-6336.0513	-6338.6336	-6340.8767	-6340.2640	-6342.5071	-6345.8773	-6348.3611	-6346.2931	-6350.8887	-6354.4777	-6353.9853	-6350.9434	-6353.7556	-6355.0577	-6357.1585	-6356.8959	-6358.7014	-6360.5943	-6362.8375	-6363.1220	-6365.4417	-6367.5973	-6368.6258	-6390.8820	-6450.7023	-6512.8752	-6543.5677	-6543.3926	-6542.7580	-6543.4583	-6545.6467	-6546.3141	-6545.9530	-6546.9816
-6368.6915	-6369.0963	-6371.1753	-6373.5935	-6374.3704	-6375.9789	-6376.2306	-6378.6707	-6380.7606	-6381.6797	-6338.6008	-6221.0173	-6218.3474	-6218.2161	-6220.0106	-6222.2537	-6225.7333	-6228.5673	-6230.1320	-6230.7448	-6233.8633	-6241.4899	-6291.6593	-6353.4820	-6403.0496	-6409.3850	-6409.8993	-6409.6039	-6410.3370	-6412.2738	-6414.0245	-6357.3336	-6253.1651	-6250.1779	-6253.0776	-6255.1456	-6254.1389	-6255.6599	-6257.9468	-6261.0653	-6259.9711	-6263.1771	-6266.2518	-6266.4159	-6267.7180	-6271.2633	-6273.1672	-6274.0863	-6275.3556	-6276.8766	-6277.1611	-6279.4698	-6280.4656	-6281.7348	-6284.4156	-6285.8053	-6286.8448	-6287.9937	-6286.7025	-6286.1117	-6288.4642	-6289.9086	-6291.7249	-6293.5413	-6295.2592	-6297.2616	-6298.2027	-6300.0628	-6302.0980	-6300.7303	-6297.1960	-6304.6913	-6307.8645	-6309.1994	-6309.7903	-6311.7599	-6313.5982	-6314.8127	-6314.8893	-6314.3203	-6315.8522	-6315.0425	-6318.0735	-6319.6272	-6320.1087	-6319.0582	-6320.0759	-6322.1877	-6326.2691	-6325.7767	-6328.0307	-6330.2520	-6331.4666	-6333.3705	-6333.8848	-6334.7820	-6340.3953	-6363.3299	-6410.4464	-6472.1488	-6510.4898	-6498.5192	-6467.9142	-6382.4785	-6348.0547	-6348.2845	-6350.1775	-6349.0942	-6349.2584	-6352.0814	-6351.3592	-6355.0467	-6357.0601	-6353.4054	-6358.5154	-6361.7433	-6365.4745	-6395.3354	-6457.3441	-6516.9237	-6537.1337	-6537.5277	-6537.6699	-6539.8364	-6539.2456	-6540.7446	-6542.1014	-6543.2613
-6363.9426	-6365.0478	-6366.4593	-6367.8380	-6370.3547	-6371.8537	-6372.3680	-6374.5455	-6375.5850	-6376.7011	-6277.8285	-6213.7408	-6215.0320	-6215.2289	-6216.9797	-6218.7960	-6221.0829	-6223.8513	-6226.1382	-6228.3813	-6230.0117	-6231.2372	-6233.7867	-6274.9179	-6337.5394	-6394.0333	-6405.4678	-6405.6866	-6407.6343	-6389.9410	-6266.2299	-6243.5142	-6244.2145	-6246.5451	-6248.1208	-6248.9962	-6250.4733	-6253.5043	-6252.4648	-6254.4234	-6254.5438	-6257.3012	-6261.9078	-6263.5272	-6265.3436	-6267.1053	-6266.5472	-6268.7575	-6269.7095	-6271.8760	-6272.7733	-6273.9988	-6275.2462	-6276.7453	-6279.3166	-6280.3343	-6280.8814	-6281.2424	-6281.8443	-6282.2601	-6283.4418	-6286.2320	-6288.6065	-6289.1754	-6290.5323	-6292.2392	-6293.4976	-6293.2459	-6296.6598	-6298.9795	-6297.9838	-6295.0185	-6304.9101	-6304.2317	-6306.8031	-6307.4159	-6307.1533	-6308.0724	-6309.0681	-6308.2803	-6308.1599	-6309.4839	-6313.0292	-6314.0358	-6317.4279	-6317.6905	-6317.9422	-6320.8309	-6321.7500	-6324.4089	-6324.4636	-6326.0393	-6327.0241	-6329.4860	-6332.0574	-6343.3715	-6395.3683	-6457.9569	-6502.0097	-6505.6096	-6507.3604	-6507.4588	-6507.6777	-6508.5093	-6467.4437	-6351.3483	-6343.1527	-6344.5204	-6345.2864	-6348.1532	-6348.9958	-6348.5252	-6350.4620	-6352.3440	-6352.6832	-6356.4911	-6366.5797	-6420.9727	-6483.7364	-6528.2597	-6528.5552	-6530.8092	-6533.4134	-6533.8511	-6534.3654	-6535.4377	-6537.4401	-6538.3264
-6359.6643	-6361.8199	-6362.6186	-6363.9098	-6364.0849	-6365.1791	-6368.7790	-6370.2781	-6371.0003	-6337.3534	-6215.3274	-6210.0861	-6211.1475	-6207.8540	-6210.8959	-6214.2004	-6216.1262	-6220.0544	-6222.2428	-6223.4136	-6226.2804	-6226.5868	-6227.9436	-6230.7995	-6232.5721	-6235.9094	-6271.9307	-6277.3908	-6240.8224	-6239.4437	-6241.1069	-6242.6498	-6243.1750	-6245.1008	-6246.7093	-6248.8320	-6248.6022	-6249.6965	-6249.9153	-6249.6746	-6253.1213	-6256.2836	-6251.1627	-6257.0823	-6261.1637	-6261.8312	-6264.5777	-6263.7898	-6267.0943	-6269.9065	-6270.3989	-6269.0201	-6269.8299	-6268.7466	-6273.4517	-6274.1957	-6276.6905	-6279.2400	-6279.3604	-6280.6953	-6280.8485	-6283.8685	-6283.8795	-6285.4661	-6285.3129	-6287.7530	-6287.6873	-6291.2107	-6293.6070	-6295.2483	-6295.7626	-6288.2016	-6294.3620	-6299.2312	-6300.4677	-6294.7121	-6288.0046	-6292.9067	-6299.3187	-6305.7089	-6304.5709	-6306.6609	-6309.3526	-6312.6243	-6313.5325	-6314.2218	-6313.7842	-6316.0929	-6316.5635	-6319.6601	-6320.6777	-6322.0564	-6326.2581	-6327.2867	-6337.7035	-6390.9695	-6453.8099	-6497.3593	-6499.2085	-6499.0006	-6502.5240	-6503.6838	-6503.3446	-6505.5330	-6506.2662	-6470.2339	-6346.7964	-6339.7716	-6341.1831	-6343.0214	-6343.9952	-6341.1722	-6348.0000	-6350.6152	-6350.3635	-6350.8559	-6370.7595	-6431.0832	-6493.6390	-6525.8962	-6527.4062	-6527.1874	-6529.7041	-6529.0257	-6530.9952	-6533.0414	-6533.8621	-6533.8839
-6341.0080	-6358.0667	-6359.4345	-6360.6162	-6362.5202	-6364.5554	-6365.2666	-6365.8465	-6359.9378	-6229.5521	-6204.3853	-6206.5081	-6206.7488	-6206.8911	-6208.1385	-6209.4077	-6214.9882	-6214.3426	-6219.4635	-6219.5510	-6220.7437	-6224.3218	-6224.5297	-6227.0792	-6227.9217	-6229.7709	-6231.6201	-6233.5241	-6234.5636	-6235.6906	-6238.5027	-6240.4504	-6240.3410	-6240.9319	-6242.4090	-6243.3500	-6244.1707	-6242.7154	-6246.8515	-6246.8734	-6248.7883	-6249.6636	-6252.9462	-6254.8939	-6256.4149	-6256.8088	-6259.5005	-6259.0957	-6260.3103	-6260.8355	-6262.2361	-6266.9083	-6267.0943	-6269.5454	-6270.5849	-6272.3575	-6271.9198	-6273.9988	-6273.6158	-6274.6663	-6276.2529	-6276.0887	-6279.3823	-6279.5355	-6282.6430	-6282.5446	-6285.1050	-6286.9651	-6288.5517	-6289.9414	-6290.4885	-6288.8800	-6282.8400	-6287.2278	-6298.0932	-6307.7551	-6324.2448	-6331.3352	-6323.0521	-6307.0986	-6304.6038	-6306.4092	-6308.1490	-6307.9739	-6308.5210	-6308.9806	-6308.6852	-6310.4031	-6312.0772	-6314.9769	-6318.5221	-6318.4017	-6320.7871	-6324.3433	-6361.5354	-6423.3690	-6481.8325	-6494.6785	-6495.2803	-6496.8450	-6497.3374	-6497.4140	-6499.3726	-6499.7009	-6502.1301	-6501.8565	-6454.1491	-6340.4938	-6337.2549	-6337.9990	-6337.7254	-6339.5199	-6344.3563	-6343.4919	-6344.3891	-6345.5490	-6373.1340	-6434.7050	-6496.8013	-6522.7887	-6523.1169	-6523.0732	-6523.5437	-6524.1893	-6526.5965	-6526.7059	-6527.9315	-6529.0475
-6271.7338	-6332.4842	-6355.3859	-6357.5306	-6358.4935	-6359.9269	-6361.4259	-6342.0913	-6222.0130	-6198.1483	-6200.3039	-6203.0942	-6203.0832	-6203.4005	-6204.1993	-6203.2364	-6209.2874	-6211.7712	-6214.2441	-6213.9706	-6218.7413	-6218.9821	-6220.1310	-6221.8598	-6223.4027	-6225.0330	-6226.1819	-6227.9983	-6229.0159	-6233.4475	-6233.2724	-6232.9988	-6234.9356	-6235.5812	-6236.4347	-6237.4632	-6238.8419	-6239.8705	-6242.3981	-6244.0066	-6245.0680	-6247.1688	-6249.3901	-6251.6988	-6252.7055	-6254.0186	-6255.6489	-6257.3450	-6259.9711	-6261.4701	-6263.3740	-6264.7637	-6264.7199	-6266.6020	-6266.4488	-6268.2980	-6267.6196	-6269.9721	-6271.6462	-6272.8936	-6274.5897	-6275.1477	-6275.6292	-6278.2771	-6279.1087	-6278.8024	-6282.0303	-6286.5493	-6286.1883	-6287.3591	-6288.9238	-6285.6959	-6291.0247	-6317.3403	-6374.0750	-6436.5104	-6463.2529	-6465.3209	-6465.1568	-6465.3756	-6412.8975	-6314.8346	-6298.8045	-6301.2555	-6302.8859	-6303.3126	-6305.3807	-6305.1180	-6305.5120	-6309.9216	-6312.8322	-6313.3465	-6316.2242	-6329.4970	-6383.2335	-6445.5705	-6487.4130	-6490.4330	-6492.0743	-6491.5053	-6490.7722	-6493.0481	-6494.8755	-6495.5429	-6496.7028	-6497.5891	-6496.8122	-6373.1449	-6330.2848	-6332.8343	-6335.0774	-6333.9066	-6339.9467	-6339.8263	-6341.7630	-6344.6955	-6367.5863	-6429.0042	-6491.5819	-6518.0398	-6518.3462	-6518.5322	-6519.9547	-6521.8695	-6521.3443	-6522.9638	-6524.2221	-6526.0604
-6187.6987	-6238.6559	-6302.1746	-6351.5124	-6356.4582	-6326.3347	-6205.5124	-6195.1612	-6195.1612	-6197.4481	-6199.1222	-6201.5951	-6201.2887	-6200.7744	-6202.6455	-6203.9476	-6206.6066	-6208.8606	-6208.5105	-6213.9268	-6215.1086	-6216.8921	-6218.3255	-6218.9273	-6221.3346	-6221.5972	-6224.3765	-6225.8756	-6228.3485	-6230.2524	-6230.3946	-6228.4907	-6229.4098	-6232.3861	-6232.4627	-6233.8086	-6235.4170	-6236.6426	-6236.7739	-6239.4656	-6239.7282	-6241.9713	-6244.7069	-6244.4224	-6246.9062	-6247.7816	-6249.1056	-6254.0405	-6254.3468	-6254.9158	-6256.4149	-6256.6228	-6257.8374	-6259.5662	-6261.9844	-6262.2142	-6259.2598	-6266.0111	-6265.4749	-6268.6700	-6270.3879	-6270.1034	-6272.4341	-6271.3289	-6274.7757	-6273.2219	-6278.1458	-6281.0127	-6281.8333	-6282.4680	-6285.7178	-6289.4162	-6318.2048	-6377.9813	-6438.1846	-6459.4669	-6459.9921	-6460.2657	-6460.4517	-6462.2900	-6463.1434	-6446.5881	-6337.9880	-6297.4039	-6297.5790	-6299.6470	-6300.5661	-6301.2555	-6301.5400	-6305.3588	-6307.2846	-6309.3198	-6309.8560	-6339.6841	-6400.7189	-6461.7757	-6484.5133	-6486.1984	-6486.4829	-6486.7346	-6487.8397	-6489.3497	-6490.0609	-6490.6409	-6491.4178	-6493.2670	-6494.6347	-6416.2457	-6329.4423	-6328.9827	-6329.5626	-6331.9808	-6333.2063	-6336.0075	-6335.2635	-6337.2877	-6361.9731	-6423.9380	-6486.4282	-6512.7876	-6512.9736	-6514.8666	-6515.9061	-6516.3657	-6516.9128	-6517.8538	-6519.4185	-6520.0313
-6182.2605	-6184.0659	-6186.6920	-6186.9327	-6187.6330	-6190.8828	-6192.8852	-6193.4870	-6195.3253	-6196.9666	-6197.5247	-6199.5489	-6196.7368	-6197.9733	-6197.9842	-6199.7678	-6203.0176	-6206.7050	-6207.8430	-6211.0272	-6206.7488	-6209.9767	-6213.8283	-6217.0672	-6215.7213	-6219.0258	-6217.6034	-6215.6666	-6218.1395	-6220.7000	-6225.3175	-6225.9850	-6228.0530	-6226.0287	-6228.7096	-6230.6354	-6233.7429	-6232.1673	-6234.4104	-6237.2225	-6237.8243	-6240.2863	-6240.2863	-6241.8510	-6244.9148	-6245.6041	-6248.6022	-6247.6065	-6249.6417	-6251.5457	-6252.6727	-6255.3426	-6256.2726	-6258.2860	-6258.2641	-6260.6166	-6263.0020	-6264.1290	-6262.8379	-6265.8688	-6268.4293	-6267.9259	-6265.5077	-6268.3527	-6271.6353	-6272.4997	-6276.8984	-6278.7148	-6280.2358	-6282.4461	-6285.5646	-6318.9816	-6379.1521	-6436.9481	-6454.8494	-6455.2761	-6455.5715	-6456.2718	-6457.3332	-6458.1101	-6459.5654	-6459.6858	-6449.2361	-6320.9184	-6294.0118	-6294.8872	-6297.7103	-6298.0714	-6299.2531	-6302.4919	-6303.5424	-6305.9387	-6308.8055	-6347.1028	-6409.8884	-6467.5093	-6481.4495	-6481.2307	-6481.4386	-6483.0799	-6483.9881	-6484.0647	-6485.5090	-6486.5595	-6488.4306	-6488.1789	-6490.2798	-6452.4640	-6329.3985	-6324.4746	-6326.3457	-6328.8842	-6329.7377	-6332.7140	-6331.0289	-6335.3510	-6348.8535	-6404.2204	-6468.2972	-6506.8023	-6510.3257	-6510.1287	-6511.2776	-6511.7591	-6512.6235	-6514.2210	-6515.0198	-6516.2344
-6177.7523	-6180.1377	-6179.6891	-6182.3699	-6183.2452	-6185.5978	-6187.6877	-6188.0598	-6189.7558	-6190.9485	-6192.7430	-6191.3533	-6191.4518	-6194.2311	-6195.1940	-6196.3757	-6198.6626	-6200.1617	-6202.6237	-6204.1227	-6205.4795	-6208.4011	-6209.3311	-6209.6813	-6211.0381	-6213.3469	-6217.5705	-6218.5006	-6219.6167	-6221.8817	-6223.7966	-6223.0087	-6221.9911	-6222.9212	-6226.9588	-6228.8737	-6227.3090	-6229.2895	-6231.6858	-6228.1625	-6232.5612	-6235.0778	-6235.7563	-6237.3976	-6240.7896	-6241.5665	-6241.8510	-6243.4704	-6245.2430	-6246.8953	-6250.7359	-6276.8328	-6329.3766	-6384.0542	-6399.1980	-6347.2888	-6310.1514	-6266.5363	-6259.0300	-6260.8245	-6261.6014	-6262.4549	-6262.8926	-6264.9388	-6265.0919	-6269.0311	-6271.7557	-6273.6049	-6275.2462	-6278.2115	-6286.7025	-6337.3862	-6398.4539	-6445.7237	-6449.5753	-6449.5096	-6450.5272	-6449.6300	-6452.1029	-6453.9412	-6452.9345	-6455.7794	-6456.5782	-6394.9962	-6290.4666	-6290.7839	-6293.4319	-6296.0142	-6294.2526	-6297.5790	-6299.7783	-6300.3582	-6305.6870	-6347.2013	-6410.1182	-6466.2182	-6476.8429	-6476.7007	-6478.6374	-6478.6921	-6479.6003	-6480.7602	-6482.5328	-6483.0690	-6483.1784	-6483.7693	-6486.0124	-6447.0477	-6327.7134	-6319.3427	-6322.7020	-6326.4989	-6326.2362	-6328.9061	-6327.3633	-6331.9261	-6333.9504	-6364.0520	-6427.4285	-6488.1461	-6507.5245	-6507.3822	-6506.6601	-6508.6296	-6511.0478	-6510.4460	-6511.7810	-6512.9736
-6172.6643	-6174.5354	-6176.9973	-6177.7742	-6178.8903	-6181.0349	-6181.3960	-6183.8033	-6186.3637	-6186.5279	-6183.9455	-6187.9066	-6189.8871	-6189.3837	-6190.1497	-6192.5132	-6193.6402	-6197.2183	-6198.7939	-6200.3039	-6201.2121	-6205.1732	-6207.0443	-6206.9786	-6209.4843	-6211.3445	-6212.5809	-6214.4083	-6216.3778	-6215.6447	-6215.8526	-6218.5225	-6218.9602	-6220.6124	-6221.8270	-6224.2561	-6224.2671	-6225.7771	-6228.7862	-6228.7752	-6229.3442	-6232.6378	-6233.3490	-6234.4541	-6236.6097	-6239.8705	-6239.5860	-6242.3324	-6245.2540	-6255.2441	-6306.3764	-6367.0939	-6412.7880	-6417.0883	-6418.2372	-6419.5283	-6419.7910	-6396.9549	-6310.0420	-6255.5833	-6254.9377	-6254.9049	-6256.8963	-6260.2008	-6261.1528	-6261.8203	-6264.9825	-6268.5278	-6270.2238	-6272.4012	-6294.5589	-6352.2127	-6412.8318	-6442.2988	-6443.7213	-6445.0890	-6445.7018	-6446.6100	-6447.3869	-6448.1200	-6449.6081	-6450.1771	-6451.2822	-6446.3911	-6319.0692	-6285.8819	-6287.5670	-6289.9633	-6288.7159	-6293.2459	-6293.7930	-6293.9681	-6301.3649	-6340.1983	-6403.3341	-6460.2219	-6471.1530	-6471.4485	-6473.0679	-6474.1731	-6475.5189	-6475.9566	-6477.5542	-6477.8496	-6479.2721	-6480.7711	-6482.8501	-6428.7197	-6319.6053	-6316.7495	-6317.7780	-6320.8746	-6321.2795	-6323.6211	-6322.7895	-6325.7439	-6330.6350	-6336.1935	-6378.5284	-6442.1347	-6494.8864	-6502.5677	-6502.1848	-6502.9288	-6505.2048	-6506.5288	-6507.5026	-6508.2576
-6167.7950	-6171.0667	-6172.2156	-6175.3232	-6175.4983	-6176.0016	-6178.5839	-6176.3627	-6178.6496	-6180.7067	-6182.5887	-6183.5735	-6185.6634	-6186.8671	-6187.2391	-6188.6069	-6191.0907	-6192.0646	-6193.0056	-6196.0365	-6195.4019	-6196.6055	-6200.2930	-6203.4443	-6205.1622	-6205.6874	-6206.8473	-6206.8035	-6210.8412	-6211.4977	-6211.3883	-6213.1828	-6215.5791	-6217.8660	-6217.3955	-6219.5182	-6221.6519	-6221.9474	-6223.6324	-6225.8208	-6224.5844	-6226.8385	-6230.3946	-6231.1387	-6232.0578	-6234.7496	-6238.0869	-6238.5355	-6251.5019	-6303.7175	-6364.8070	-6406.0149	-6409.6477	-6410.0963	-6411.9893	-6412.2628	-6412.7224	-6414.8014	-6413.2038	-6314.4626	-6250.6812	-6250.6265	-6252.8368	-6254.6970	-6254.5328	-6256.3930	-6261.8859	-6263.5382	-6264.4464	-6267.0396	-6301.0367	-6362.3341	-6420.2068	-6437.9001	-6439.0271	-6439.4210	-6441.3031	-6440.3292	-6443.0319	-6444.8374	-6445.3516	-6445.7018	-6446.5772	-6449.5315	-6364.8727	-6282.4242	-6280.6187	-6286.3962	-6287.4685	-6289.4052	-6290.9918	-6291.6484	-6297.0975	-6323.4460	-6385.8268	-6446.4787	-6469.2382	-6469.2491	-6468.6364	-6470.3105	-6470.8686	-6473.1117	-6472.5208	-6474.4138	-6475.4314	-6477.0289	-6477.3900	-6410.8622	-6314.9331	-6313.2152	-6313.8717	-6316.0382	-6316.9464	-6320.3056	-6319.4631	-6320.5573	-6324.3323	-6326.7724	-6334.9242	-6384.8092	-6448.0434	-6494.8317	-6499.3726	-6500.4450	-6500.9155	-6500.8498	-6503.7057	-6493.8250
-6162.2912	-6165.0814	-6166.9197	-6164.6656	-6166.7337	-6172.8393	-6175.4983	-6175.3122	-6177.0630	-6174.6995	-6179.8423	-6180.9474	-6182.3261	-6182.9170	-6183.5845	-6183.2124	-6185.4774	-6187.3485	-6189.9527	-6190.5983	-6193.7278	-6194.9204	-6196.2554	-6197.9186	-6200.1726	-6199.4286	-6202.1531	-6202.9738	-6207.0990	-6211.6728	-6221.1158	-6228.2609	-6219.4854	-6212.4387	-6213.8721	-6215.0429	-6216.3997	-6218.9164	-6219.9887	-6222.3960	-6222.3741	-6222.3850	-6224.9783	-6226.9151	-6228.5892	-6231.1496	-6233.3490	-6241.1726	-6291.7140	-6353.6899	-6400.3141	-6405.2271	-6405.5225	-6407.2513	-6408.4987	-6408.0063	-6409.8884	-6411.8361	-6411.8251	-6407.7547	-6284.0655	-6247.5627	-6248.6898	-6248.5913	-6251.9177	-6254.0952	-6257.9905	-6259.1285	-6260.9777	-6265.2998	-6308.9040	-6371.1863	-6424.5070	-6434.6284	-6435.0004	-6435.3287	-6436.4886	-6437.9548	-6439.3335	-6439.9681	-6440.5700	-6442.1128	-6443.1961	-6444.4982	-6380.8044	-6279.2400	-6278.3866	-6280.3890	-6284.4813	-6284.3938	-6287.2278	-6286.0570	-6288.6283	-6300.3473	-6355.3969	-6418.9812	-6462.1040	-6464.8614	-6464.4346	-6465.9227	-6467.1264	-6466.1525	-6468.3738	-6470.3324	-6471.2953	-6472.5755	-6471.4157	-6351.0638	-6309.4511	-6310.7423	-6308.4335	-6312.5368	-6313.7732	-6314.3641	-6314.1671	-6315.3489	-6321.2795	-6323.7852	-6324.6387	-6327.2757	-6367.4660	-6430.3391	-6485.0276	-6497.3484	-6498.2018	-6499.6790	-6454.1272	-6340.7673
-6157.3782	-6160.1794	-6164.0966	-6165.4972	-6167.5762	-6169.0096	-6169.5677	-6171.0230	-6171.9311	-6173.0472	-6175.6733	-6174.7214	-6177.0083	-6177.8070	-6179.5687	-6181.1881	-6180.3128	-6183.9674	-6185.3352	-6188.0379	-6189.9746	-6190.0403	-6193.4761	-6194.7235	-6195.0736	-6197.0104	-6201.5732	-6224.7485	-6285.7506	-6347.7812	-6371.7115	-6371.5802	-6372.7510	-6344.2360	-6237.2881	-6208.1494	-6208.7731	-6211.7712	-6213.3907	-6215.0320	-6216.0058	-6215.8964	-6217.2860	-6222.4945	-6224.4531	-6225.2190	-6226.2148	-6251.5457	-6313.0182	-6373.5388	-6398.3336	-6400.8721	-6401.3317	-6400.6423	-6402.9292	-6404.3189	-6405.3365	-6406.8246	-6405.9711	-6407.8969	-6363.4502	-6245.5275	-6243.3391	-6243.3063	-6250.0904	-6249.8059	-6253.0447	-6254.6204	-6255.9772	-6264.8950	-6314.5392	-6376.8105	-6425.3824	-6430.8425	-6430.9190	-6430.8315	-6432.3962	-6433.2825	-6435.7007	-6435.8539	-6435.4491	-6437.1451	-6438.5566	-6439.0818	-6371.6021	-6276.8547	-6274.7976	-6275.9465	-6278.9774	-6279.4370	-6283.9889	-6281.0674	-6285.1378	-6287.9828	-6307.9083	-6369.2386	-6431.9695	-6458.9745	-6461.2286	-6462.4322	-6461.5021	-6462.0492	-6464.0407	-6465.9774	-6466.2729	-6465.2662	-6402.8636	-6305.4025	-6304.9649	-6304.9101	-6303.3892	-6306.4420	-6310.3921	-6311.3441	-6308.6633	-6310.8955	-6315.0644	-6319.1895	-6319.3646	-6321.9032	-6324.2667	-6325.5578	-6329.9237	-6330.5474	-6330.9851	-6329.0921	-6329.3438	-6332.2544
-6154.7521	-6157.1812	-6159.0086	-6161.3283	-6163.1118	-6162.5538	-6163.3197	-6165.4972	-6165.8911	-6167.7403	-6168.2327	-6170.8698	-6172.6533	-6174.2399	-6174.4369	-6176.2314	-6176.6472	-6178.9560	-6180.6629	-6180.9036	-6185.0616	-6186.0902	-6188.0598	-6190.4889	-6190.8719	-6198.2578	-6242.0042	-6305.9387	-6358.5263	-6364.7961	-6364.3475	-6365.8794	-6366.1967	-6369.3480	-6368.8228	-6286.8448	-6206.2236	-6206.4862	-6209.0576	-6208.7840	-6212.1651	-6212.3293	-6212.7451	-6216.9578	-6218.7960	-6219.9778	-6224.0701	-6260.1024	-6322.5816	-6379.7867	-6394.0443	-6394.8649	-6396.2874	-6395.6527	-6398.3445	-6399.8983	-6400.5548	-6400.7408	-6403.0496	-6404.5377	-6395.7512	-6262.6737	-6236.9161	-6239.2687	-6241.4680	-6242.0151	-6246.4904	-6249.6636	-6250.1451	-6254.1718	-6294.2963	-6357.0819	-6412.3832	-6424.3319	-6422.9313	-6426.0061	-6427.7787	-6427.8224	-6427.7787	-6428.7416	-6432.1227	-6433.4357	-6432.8011	-6434.8254	-6348.4705	-6269.6438	-6270.6833	-6270.0049	-6274.9726	-6277.0188	-6278.9774	-6277.6206	-6277.9817	-6285.1269	-6286.8995	-6325.6563	-6389.0219	-6445.7018	-6457.6724	-6457.0378	-6458.5697	-6459.8827	-6461.3489	-6461.9945	-6462.8042	-6428.0632	-6305.9825	-6298.3340	-6299.7127	-6301.9120	-6301.7369	-6304.4725	-6304.4287	-6308.2365	-6307.8317	-6308.6961	-6309.9544	-6312.9526	-6315.9945	-6316.6948	-6318.7081	-6319.1567	-6321.8047	-6322.7676	-6324.3651	-6324.5512	-6325.9517	-6328.2934
-6146.9723	-6153.1655	-6149.9266	-6152.3011	-6153.3187	-6156.0542	-6158.6365	-6160.7593	-6162.0833	-6163.9872	-6165.6942	-6166.9197	-6166.9197	-6170.0272	-6171.2965	-6172.9706	-6175.1153	-6175.4217	-6177.1724	-6179.6453	-6180.2034	-6181.7900	-6185.3790	-6186.7577	-6190.5327	-6223.1400	-6284.8424	-6344.7065	-6361.1196	-6360.7694	-6360.5943	-6362.2575	-6364.1943	-6363.7347	-6365.2338	-6366.8313	-6302.5685	-6202.8863	-6202.2079	-6201.7811	-6206.5300	-6208.7074	-6210.1846	-6212.3949	-6212.7341	-6216.2794	-6222.5054	-6271.3508	-6334.2896	-6383.7259	-6390.1051	-6390.7616	-6390.8054	-6392.9829	-6393.3221	-6393.5738	-6394.7008	-6397.4363	-6397.2175	-6398.7275	-6398.7712	-6287.1293	-6233.7429	-6234.0602	-6237.7258	-6239.0498	-6242.0698	-6246.2497	-6247.3220	-6248.5256	-6271.6134	-6332.9984	-6393.7817	-6419.9989	-6420.7757	-6423.5660	-6424.4304	-6424.1021	-6425.2839	-6427.0565	-6427.3848	-6427.6583	-6429.6826	-6429.1683	-6305.3259	-6265.2889	-6266.5582	-6266.5801	-6270.6396	-6271.2086	-6274.7429	-6271.4931	-6273.9550	-6279.3823	-6279.4808	-6283.0151	-6320.8746	-6383.6274	-6440.5590	-6453.8865	-6454.1819	-6455.1667	-6455.6919	-6454.3351	-6379.4038	-6296.0252	-6293.9134	-6295.2702	-6297.8744	-6297.3382	-6298.5309	-6299.2640	-6300.2269	-6303.0062	-6303.0172	-6301.8026	-6306.7265	-6307.7223	-6311.6833	-6312.3070	-6314.1015	-6316.0163	-6317.2966	-6318.2923	-6319.6710	-6320.9840	-6322.4831	-6322.8661
-6136.3366	-6145.3200	-6148.8434	-6150.3315	-6153.0123	-6169.2722	-6224.6500	-6271.9964	-6250.6375	-6212.8983	-6173.9226	-6160.1575	-6159.9824	-6164.7531	-6166.0115	-6168.0467	-6169.5567	-6170.5087	-6170.6619	-6173.1457	-6175.3122	-6179.3608	-6179.9407	-6182.8951	-6196.0365	-6251.2831	-6313.7732	-6353.1866	-6355.3312	-6355.1999	-6356.7099	-6357.4868	-6359.1500	-6359.2704	-6361.1524	-6362.5858	-6361.6229	-6265.7704	-6196.2663	-6199.9100	-6200.5337	-6203.8711	-6203.5318	-6207.9415	-6211.5743	-6211.2679	-6218.9164	-6270.9678	-6334.4319	-6380.7825	-6384.1198	-6385.3453	-6387.3915	-6388.4966	-6388.4638	-6390.0285	-6391.5385	-6393.1032	-6393.0923	-6392.6656	-6394.4929	-6288.2235	-6230.2743	-6230.1867	-6233.3271	-6235.9204	-6236.6207	-6240.4832	-6241.9713	-6244.3677	-6257.0823	-6312.5258	-6374.6987	-6413.7291	-6417.5697	-6417.5259	-6418.3904	-6419.0797	-6421.1368	-6422.4499	-6423.4566	-6423.5660	-6424.6492	-6357.4540	-6260.7479	-6261.9187	-6263.8664	-6262.4768	-6265.3327	-6267.9259	-6270.1691	-6269.8517	-6268.9654	-6273.8237	-6277.3033	-6277.8613	-6280.0279	-6290.8168	-6331.3024	-6392.5999	-6444.7170	-6440.6794	-6341.4676	-6291.5061	-6288.8691	-6290.1931	-6291.6155	-6292.6441	-6295.5218	-6295.4015	-6294.4824	-6296.0799	-6294.9419	-6298.3449	-6297.2835	-6297.2398	-6302.2950	-6303.3564	-6305.3041	-6308.6852	-6309.8341	-6311.5848	-6312.7228	-6313.0729	-6316.2352	-6317.2966	-6318.0735	-6319.3209
-6140.3195	-6142.5079	-6144.8714	-6154.6646	-6203.3677	-6265.3655	-6312.8103	-6318.9816	-6320.4260	-6321.3889	-6321.0388	-6271.8651	-6176.3955	-6159.1617	-6159.2274	-6161.4815	-6162.9805	-6164.3483	-6167.1276	-6169.8631	-6171.9421	-6174.2290	-6175.7280	-6178.7699	-6210.3050	-6270.3441	-6329.9347	-6350.5276	-6350.2869	-6347.1465	-6351.3374	-6353.5805	-6353.3835	-6355.0905	-6356.3926	-6357.9573	-6358.2199	-6329.8143	-6203.7179	-6193.4651	-6194.5265	-6197.5794	-6199.8991	-6204.0461	-6204.9653	-6204.8011	-6214.6162	-6266.4378	-6330.2629	-6375.5522	-6379.3819	-6381.1873	-6382.1831	-6382.1721	-6385.0389	-6385.4985	-6387.5009	-6388.0918	-6388.2012	-6390.0613	-6391.6917	-6299.2093	-6225.0440	-6224.7266	-6228.5345	-6230.0007	-6231.3685	-6235.1982	-6237.0693	-6238.9295	-6238.3386	-6264.5996	-6326.8928	-6387.4134	-6413.1710	-6413.2585	-6416.0597	-6417.2962	-6418.2372	-6418.7515	-6420.0098	-6421.7168	-6407.0544	-6271.8104	-6256.1304	-6259.8507	-6261.6124	-6260.7698	-6262.0938	-6265.7375	-6267.3460	-6264.7637	-6265.8688	-6269.8299	-6273.9550	-6275.3228	-6275.9355	-6275.4869	-6278.3209	-6279.4261	-6280.0607	-6282.9494	-6282.0850	-6284.8533	-6284.8752	-6286.1226	-6289.3724	-6290.9590	-6290.4447	-6291.4952	-6291.3091	-6289.8648	-6293.2459	-6294.6465	-6293.6617	-6295.1060	-6296.6708	-6295.1279	-6298.5856	-6301.8573	-6304.1114	-6303.9582	-6305.2712	-6306.7375	-6303.2688	-6308.5648	-6309.8341	-6313.5872
-6135.3299	-6139.0393	-6153.0998	-6210.9287	-6274.2614	-6308.6961	-6310.1623	-6312.1429	-6315.2285	-6316.1805	-6317.4826	-6318.5549	-6287.5670	-6175.7499	-6152.5856	-6155.0366	-6157.7721	-6159.3587	-6160.0590	-6163.1775	-6166.8868	-6168.6485	-6170.4211	-6177.0849	-6224.2452	-6285.0503	-6336.7844	-6343.1089	-6343.5466	-6345.4833	-6346.0523	-6347.3873	-6347.6389	-6350.0790	-6351.2717	-6352.6066	-6353.2741	-6346.0961	-6211.7165	-6189.6901	-6190.4342	-6193.8591	-6194.8329	-6197.7107	-6198.3672	-6200.9276	-6207.0443	-6248.1317	-6312.1866	-6366.5250	-6374.7534	-6377.1825	-6376.2525	-6376.8980	-6379.1521	-6381.1654	-6381.3952	-6381.8001	-6384.1745	-6385.5532	-6384.3824	-6263.1005	-6221.3784	-6220.6124	-6221.5206	-6225.5364	-6226.5868	-6230.8433	-6232.5940	-6234.6292	-6233.6773	-6234.1259	-6264.3260	-6324.2886	-6384.1964	-6409.2647	-6411.3765	-6411.4312	-6411.4969	-6413.2914	-6414.6482	-6402.3712	-6267.5539	-6251.1736	-6252.3554	-6255.1128	-6253.9420	-6253.4933	-6257.2684	-6257.1261	-6260.3759	-6261.1090	-6261.5577	-6265.0044	-6266.7333	-6268.0572	-6270.0268	-6273.0687	-6273.6158	-6272.9593	-6274.9945	-6278.0036	-6279.1087	-6280.0826	-6280.5859	-6282.4789	-6283.9561	-6285.2144	-6284.6673	-6283.6169	-6286.1883	-6287.6217	-6286.8557	-6288.4752	-6289.0441	-6292.2064	-6293.0161	-6294.3182	-6296.4957	-6298.6294	-6300.3801	-6302.7327	-6304.2646	-6306.5186	-6306.1247	-6307.9958	-6308.8383	-6310.5234
-6131.4236	-6140.2101	-6189.7667	-6254.4015	-6300.7959	-6305.2275	-6305.6870	-6307.3065	-6308.8931	-6310.1952	-6312.3836	-6314.5282	-6314.4626	-6260.2446	-6155.1460	-6150.1236	-6151.6664	-6152.3886	-6154.3363	-6158.9538	-6162.6523	-6163.4510	-6164.8516	-6174.8417	-6224.7048	-6285.5099	-6332.8453	-6338.6774	-6340.3515	-6340.7892	-6340.5922	-6342.8791	-6345.0675	-6345.3411	-6347.1247	-6348.0876	-6350.2760	-6351.0419	-6249.5542	-6183.8361	-6185.5650	-6186.5935	-6188.5740	-6190.2919	-6194.4171	-6198.0061	-6199.2097	-6218.3584	-6279.6449	-6342.8244	-6371.4598	-6372.1492	-6372.3571	-6373.9765	-6375.8038	-6376.1102	-6378.0470	-6379.8086	-6380.4980	-6381.3405	-6343.6013	-6221.0282	-6218.0301	-6217.7128	-6217.2423	-6220.6562	-6223.1182	-6224.9674	-6226.7619	-6230.0664	-6230.9417	-6227.1558	-6233.6991	-6251.9505	-6311.3988	-6372.4556	-6406.3322	-6406.0149	-6407.7328	-6399.9968	-6286.5822	-6247.5299	-6244.6193	-6247.1469	-6249.1493	-6250.2326	-6250.3858	-6249.8059	-6251.2721	-6253.7450	-6256.1742	-6253.8873	-6258.1766	-6260.0914	-6261.2732	-6263.7461	-6267.8056	-6267.3241	-6269.2937	-6270.4973	-6271.8213	-6273.2328	-6274.6881	-6274.3927	-6276.9750	-6279.0540	-6277.1282	-6279.1744	-6279.7543	-6281.5707	-6282.8072	-6280.8923	-6281.1440	-6284.0217	-6286.4837	-6286.3962	-6288.8144	-6286.8338	-6291.3639	-6293.0271	-6295.8939	-6296.4191	-6297.8525	-6300.4567	-6301.8901	-6303.1813	-6303.5533	-6305.0305
-6126.8936	-6162.3131	-6226.3680	-6285.7506	-6299.5485	-6300.8178	-6300.7412	-6301.7479	-6304.6147	-6305.5448	-6308.1709	-6309.4730	-6307.7441	-6310.0748	-6218.2271	-6144.7729	-6147.2677	-6148.7996	-6150.8239	-6152.5090	-6156.4700	-6158.5490	-6160.1794	-6175.9688	-6232.4080	-6293.4538	-6330.8647	-6334.5960	-6334.2349	-6335.2306	-6336.8501	-6337.8786	-6338.5461	-6340.2749	-6341.4129	-6343.8420	-6344.8925	-6344.9472	-6230.4275	-6180.2362	-6182.4465	-6182.2167	-6184.6896	-6188.1364	-6189.5479	-6192.7320	-6191.6378	-6201.4310	-6250.0138	-6314.1890	-6361.9074	-6366.9955	-6368.6368	-6369.5340	-6370.2453	-6369.9061	-6372.9698	-6374.3485	-6375.0598	-6374.2719	-6257.2465	-6212.1433	-6214.0253	-6213.8940	-6212.6904	-6217.5596	-6218.4897	-6220.0106	-6223.7528	-6225.3722	-6227.3965	-6225.4379	-6228.8627	-6230.2743	-6232.6159	-6238.2292	-6240.6583	-6249.0290	-6244.2692	-6240.2972	-6240.6364	-6241.5227	-6244.0175	-6245.0461	-6245.7026	-6246.0418	-6248.1098	-6248.8539	-6248.0114	-6249.9262	-6251.8630	-6254.7845	-6252.7274	-6256.0647	-6252.4210	-6259.2161	-6263.2974	-6264.2494	-6263.8664	-6266.2737	-6268.4074	-6267.7290	-6267.2366	-6267.4226	-6270.2238	-6272.0839	-6273.7362	-6274.0863	-6277.6753	-6276.3623	-6273.3642	-6277.0845	-6279.9841	-6279.6887	-6281.6035	-6282.8838	-6284.0327	-6286.1773	-6288.6831	-6289.3505	-6289.5037	-6291.1013	-6291.7140	-6293.7602	-6293.8368	-6296.0799	-6294.2088	-6296.9990
-6124.1471	-6163.3416	-6227.4950	-6284.7330	-6295.1826	-6296.1237	-6296.9115	-6298.0604	-6298.9795	-6302.2293	-6303.0391	-6303.4658	-6305.7199	-6306.6062	-6275.4322	-6147.9571	-6140.9104	-6144.5760	-6147.5194	-6145.4076	-6152.2026	-6153.5703	-6155.6165	-6161.7878	-6208.9153	-6270.0706	-6321.7938	-6329.7268	-6329.2891	-6331.6854	-6333.6221	-6332.3638	-6333.8519	-6335.9528	-6338.6117	-6338.9072	-6339.6950	-6338.8196	-6215.8198	-6176.3080	-6176.7675	-6178.6933	-6181.1553	-6182.1510	-6185.5103	-6186.8233	-6188.5084	-6191.2986	-6202.0109	-6258.6908	-6321.9798	-6362.6405	-6364.2381	-6365.7590	-6365.6605	-6367.4879	-6368.8118	-6370.5954	-6370.7705	-6273.8894	-6206.4424	-6208.7403	-6209.7907	-6209.0685	-6210.3706	-6212.1104	-6213.8174	-6216.4107	-6219.0477	-6220.5030	-6221.2471	-6221.6629	-6222.3741	-6227.6153	-6227.2652	-6229.0706	-6230.4165	-6232.8566	-6232.8675	-6234.3119	-6236.4894	-6236.9161	-6239.1702	-6240.0893	-6240.9975	-6242.2121	-6244.5756	-6240.1003	-6240.7458	-6245.0898	-6248.2083	-6246.1731	-6245.8448	-6249.9919	-6252.8697	-6254.2921	-6251.6441	-6256.7541	-6257.8264	-6259.8069	-6260.4416	-6262.2908	-6265.0482	-6267.9259	-6269.2062	-6268.1995	-6268.8888	-6271.1539	-6272.7076	-6270.3332	-6272.5544	-6275.4979	-6271.6572	-6274.0754	-6277.7957	-6280.2358	-6277.4018	-6281.8661	-6283.6388	-6282.2929	-6285.1706	-6286.6478	-6287.2825	-6287.6217	-6291.6374	-6295.9814	-6318.1938	-6332.8124
-6126.8170	-6180.1486	-6244.8491	-6287.2278	-6290.5323	-6290.5213	-6290.5541	-6293.8805	-6294.0337	-6295.7954	-6297.2179	-6300.1613	-6301.7151	-6302.9953	-6290.6198	-6166.9416	-6136.6101	-6138.7986	-6139.5754	-6140.9104	-6147.2239	-6149.3467	-6148.9200	-6156.2840	-6199.6693	-6261.0434	-6314.3094	-6325.1530	-6326.2034	-6327.2867	-6329.1578	-6328.3918	-6330.3395	-6332.7249	-6332.6374	-6334.3553	-6335.6136	-6303.2688	-6180.8161	-6173.2004	-6172.8175	-6173.7147	-6176.8551	-6178.0696	-6180.1158	-6183.0155	-6185.5431	-6186.0574	-6187.7315	-6193.6730	-6237.6492	-6300.5333	-6352.4863	-6362.4107	-6363.8332	-6363.9536	-6364.5663	-6359.1938	-6253.0228	-6202.0875	-6202.8097	-6204.7902	-6206.6722	-6207.2959	-6208.1166	-6210.1299	-6210.5785	-6213.1390	-6213.0405	-6216.6076	-6217.6909	-6219.9778	-6217.1000	-6221.5316	-6223.9498	-6225.6567	-6227.3090	-6228.1515	-6229.3223	-6229.5959	-6231.0949	-6233.0207	-6233.5678	-6235.0997	-6234.1149	-6235.2529	-6237.4632	-6238.9404	-6241.1835	-6240.3957	-6242.3871	-6242.1355	-6243.0437	-6246.6217	-6247.0047	-6247.8910	-6250.2217	-6250.7469	-6253.6247	-6257.4981	-6258.2532	-6261.5029	-6261.0762	-6262.0063	-6263.4616	-6260.6713	-6264.2603	-6262.8488	-6261.0434	-6266.6348	-6269.5673	-6268.9873	-6271.0773	-6270.8037	-6274.8085	-6273.4736	-6275.6729	-6275.7386	-6278.3428	-6278.8352	-6282.0412	-6282.2272	-6283.8576	-6292.2611	-6336.0513	-6397.5020	-6450.3084	-6458.0882
-6123.4359	-6179.5140	-6244.1269	-6283.6716	-6286.0022	-6286.0460	-6287.4794	-6288.6612	-6290.3134	-6291.6702	-6293.3991	-6294.5808	-6295.8282	-6296.9881	-6295.3905	-6170.8260	-6133.2728	-6131.7847	-6136.7305	-6138.2296	-6141.2824	-6144.5541	-6146.0422	-6147.3771	-6166.6680	-6225.2956	-6286.6697	-6319.2771	-6321.9032	-6322.4284	-6322.7676	-6324.8357	-6325.6891	-6327.2539	-6328.0636	-6329.6173	-6330.8319	-6231.1825	-6165.7598	-6167.7403	-6170.0601	-6170.1914	-6171.6576	-6173.4630	-6176.9207	-6179.3718	-6179.9079	-6180.9584	-6182.8294	-6185.2148	-6187.7206	-6225.3722	-6287.4247	-6344.0828	-6355.1233	-6348.5143	-6244.7506	-6195.3253	-6195.6864	-6197.2839	-6197.3715	-6200.1289	-6201.2450	-6200.5556	-6202.9082	-6202.9738	-6205.7750	-6207.6242	-6209.4953	-6208.2698	-6213.3359	-6214.4849	-6213.0296	-6210.3597	-6218.3365	-6218.5772	-6221.0829	-6222.6805	-6224.2890	-6226.3789	-6227.0135	-6228.7971	-6227.0573	-6229.1472	-6230.7995	-6231.6201	-6232.3533	-6234.2791	-6233.5678	-6235.8876	-6237.0912	-6237.2006	-6240.4832	-6240.6692	-6240.9866	-6243.4376	-6245.2868	-6248.6570	-6248.9196	-6249.8168	-6251.6113	-6251.9615	-6254.5438	-6253.7778	-6252.7712	-6256.1523	-6258.0343	-6256.5462	-6259.5881	-6261.0434	-6263.3522	-6264.1509	-6265.0701	-6268.4293	-6268.4402	-6270.1691	-6269.8080	-6273.5502	-6275.3118	-6276.3513	-6275.2900	-6278.8024	-6295.5875	-6352.8911	-6414.8342	-6451.8950	-6452.6391	-6453.7442
-6121.0396	-6178.3651	-6242.9014	-6279.3604	-6280.9032	-6281.9427	-6283.7810	-6284.0874	-6285.0065	-6287.7639	-6289.0989	-6290.7839	-6291.9876	-6293.5194	-6293.2897	-6169.1956	-6128.0425	-6130.1215	-6133.6339	-6134.4327	-6136.2709	-6139.2362	-6142.1031	-6143.9085	-6147.4428	-6191.3205	-6252.9353	-6307.8536	-6318.4236	-6317.0558	-6320.0102	-6321.2795	-6321.3998	-6321.8266	-6324.0916	-6325.7767	-6285.2144	-6165.6176	-6160.5842	-6164.4577	-6165.2455	-6165.1471	-6168.0248	-6169.7974	-6170.1695	-6173.0582	-6174.9730	-6177.4897	-6180.1705	-6180.7723	-6181.2757	-6184.2629	-6186.5498	-6186.1449	-6187.8737	-6189.7886	-6190.8390	-6193.1369	-6194.2530	-6195.3909	-6197.3386	-6199.0456	-6199.2644	-6199.0018	-6196.8025	-6200.2711	-6202.3939	-6202.2626	-6205.9063	-6207.8321	-6209.3093	-6208.6965	-6210.5238	-6206.0595	-6214.6490	-6215.4478	-6217.0562	-6214.9663	-6215.5244	-6217.2532	-6219.9340	-6222.8884	-6225.1972	-6226.5977	-6225.2409	-6227.4840	-6228.5564	-6225.8427	-6225.1206	-6231.0402	-6232.6596	-6235.4061	-6234.5964	-6233.5788	-6237.7149	-6239.1374	-6241.1616	-6241.4242	-6242.9124	-6244.4880	-6245.3087	-6242.5403	-6246.0527	-6249.0837	-6250.6484	-6254.7298	-6254.9268	-6256.4368	-6259.6100	-6258.0453	-6258.2094	-6260.7261	-6263.0348	-6264.1619	-6264.7637	-6264.1728	-6268.0463	-6268.9983	-6269.8955	-6271.3727	-6273.2547	-6282.7087	-6326.3566	-6388.7155	-6440.5918	-6448.4592	-6447.3650	-6447.7917
-6113.3692	-6167.9373	-6232.8347	-6274.3271	-6277.6644	-6278.4632	-6279.1306	-6279.6230	-6281.8661	-6283.4418	-6284.3172	-6284.3828	-6286.5822	-6289.6022	-6277.0516	-6145.3310	-6124.9240	-6127.2875	-6127.3860	-6130.3075	-6132.0473	-6136.0083	-6136.6648	-6137.7153	-6140.0897	-6142.9894	-6182.5231	-6244.7069	-6302.2950	-6315.8522	-6316.6838	-6316.6072	-6317.2200	-6317.5701	-6319.1895	-6279.5792	-6160.2122	-6156.6451	-6158.6803	-6161.6675	-6159.5338	-6161.4268	-6164.0747	-6166.3507	-6168.1124	-6169.5239	-6172.2375	-6173.3317	-6174.7761	-6175.8812	-6178.1134	-6180.6191	-6180.7723	-6181.0240	-6182.9170	-6184.3395	-6186.7467	-6187.6987	-6189.3400	-6190.7625	-6192.8196	-6191.9661	-6192.2287	-6191.9880	-6192.6226	-6196.6383	-6196.7149	-6199.4067	-6201.5842	-6202.8425	-6204.9215	-6204.5932	-6207.8211	-6209.6266	-6202.1531	-6209.4843	-6213.2156	-6215.7323	-6216.8812	-6217.4720	-6219.9231	-6221.4550	-6220.4373	-6220.5687	-6223.0525	-6224.0154	-6221.3127	-6224.1139	-6227.4840	-6227.7138	-6228.4469	-6231.8171	-6230.6463	-6233.7648	-6236.0626	-6236.6863	-6235.7344	-6237.2553	-6241.3805	-6241.2492	-6242.0042	-6255.7146	-6300.2707	-6361.9402	-6405.3255	-6386.7568	-6347.7921	-6280.6187	-6255.0471	-6253.8873	-6254.0623	-6256.7650	-6256.0866	-6256.0429	-6256.3055	-6257.9905	-6259.9273	-6264.1072	-6264.9278	-6266.5910	-6268.3746	-6297.2288	-6358.5591	-6419.3204	-6441.8611	-6442.0471	-6441.8064	-6443.3274
-6103.5870	-6149.9813	-6214.6052	-6266.7989	-6273.9988	-6273.7034	-6273.1234	-6277.0516	-6278.2771	-6277.5440	-6280.7172	-6282.4351	-6283.4527	-6284.6783	-6207.7227	-6120.6566	-6123.0310	-6121.7508	-6121.9478	-6125.2960	-6128.1738	-6130.7342	-6131.6534	-6129.3993	-6133.7433	-6135.0782	-6137.9232	-6176.6253	-6238.9732	-6298.1589	-6312.3508	-6310.8517	-6313.1386	-6310.3155	-6210.5129	-6151.1193	-6150.8895	-6153.5594	-6156.1964	-6155.6493	-6155.3977	-6159.5338	-6158.0019	-6161.4596	-6162.9039	-6163.8231	-6167.3683	-6169.7756	-6169.5786	-6171.5701	-6174.4259	-6175.4983	-6177.1833	-6177.3365	-6180.0283	-6180.8052	-6181.1772	-6183.5079	-6183.7267	-6185.9917	-6186.0464	-6184.8537	-6188.2020	-6190.8281	-6191.4846	-6190.6421	-6191.4627	-6195.3691	-6196.2554	-6196.9119	-6198.6626	-6200.3039	-6202.4048	-6203.1708	-6203.9367	-6201.7045	-6209.6813	-6210.0205	-6211.2788	-6212.1214	-6214.4958	-6214.7146	-6216.1918	-6215.5025	-6216.4654	-6216.1262	-6215.6228	-6216.9578	-6220.5030	-6222.8227	-6220.1419	-6225.5473	-6224.1139	-6226.5102	-6231.7186	-6232.7253	-6233.3709	-6233.8195	-6234.7715	-6242.6826	-6278.1021	-6339.3011	-6396.7032	-6410.6106	-6411.7267	-6413.2476	-6412.4817	-6413.7838	-6359.9378	-6259.9273	-6249.2697	-6252.4101	-6251.7317	-6252.3882	-6252.4757	-6253.4715	-6256.1851	-6257.9687	-6260.6823	-6262.5534	-6269.0420	-6314.3969	-6376.8652	-6429.3215	-6436.1384	-6436.2807	-6437.9548	-6438.4144
-6095.4132	-6122.1557	-6183.8252	-6247.3330	-6268.9436	-6268.1557	-6269.9065	-6271.2304	-6272.0073	-6273.8675	-6275.8261	-6277.6206	-6278.3428	-6263.9211	-6126.6857	-6116.0609	-6116.8159	-6115.3278	-6117.9211	-6121.2912	-6124.5520	-6125.6571	-6124.7380	-6128.5130	-6131.4783	-6133.4479	-6134.6953	-6135.8551	-6139.0502	-6164.3592	-6210.1299	-6191.9770	-6158.1660	-6145.0027	-6147.0160	-6148.1540	-6149.9048	-6152.1698	-6152.3777	-6153.5047	-6155.3977	-6156.9733	-6151.1850	-6158.3083	-6159.2493	-6163.1994	-6159.9058	-6162.5100	-6167.6090	-6168.8564	-6171.1324	-6172.6861	-6173.5068	-6175.0496	-6176.1657	-6174.7214	-6178.1900	-6178.1134	-6178.1134	-6181.2538	-6181.4726	-6183.5407	-6185.1929	-6185.0835	-6186.2105	-6187.3376	-6189.4166	-6190.9594	-6193.9685	-6194.7672	-6195.2815	-6197.5028	-6199.2207	-6200.4352	-6201.9124	-6194.3733	-6199.3301	-6205.6656	-6206.3658	-6205.0528	-6200.0851	-6192.6226	-6200.7854	-6210.5895	-6210.9615	-6214.9007	-6213.8174	-6218.3036	-6220.2623	-6220.9297	-6223.4464	-6222.2975	-6225.0330	-6226.6196	-6226.4336	-6228.8190	-6231.2481	-6234.1368	-6238.4918	-6284.3609	-6346.7636	-6399.6904	-6405.0520	-6405.4240	-6406.9450	-6409.2319	-6408.8379	-6409.5929	-6411.4312	-6385.3125	-6260.8792	-6245.4728	-6247.7050	-6248.4272	-6250.8782	-6250.5499	-6253.2636	-6254.6970	-6254.6313	-6254.9158	-6269.5891	-6322.5706	-6385.4547	-6428.2164	-6432.0680	-6433.1622	-6433.3591	-6434.1360
-6091.3756	-6095.2163	-6122.7246	-6186.6045	-6248.0989	-6267.5649	-6267.4664	-6268.2542	-6268.4730	-6270.3113	-6272.6967	-6274.6334	-6272.1824	-6155.1569	-6111.2683	-6111.6950	-6113.0409	-6113.4239	-6115.1308	-6116.8925	-6120.5691	-6121.9587	-6124.0268	-6126.3574	-6128.5239	-6129.1695	-6131.2048	-6133.4916	-6133.7433	-6133.8090	-6136.8180	-6139.2800	-6138.5141	-6142.2781	-6143.7444	-6145.9218	-6146.6659	-6147.8039	-6149.7078	-6148.3182	-6149.9813	-6148.2853	-6150.8677	-6153.9533	-6154.9600	-6155.3648	-6158.3630	-6160.9891	-6163.9544	-6164.6000	-6165.6066	-6165.8474	-6168.9877	-6167.8388	-6169.2394	-6171.4059	-6174.1414	-6176.3736	-6176.8551	-6177.6648	-6179.8094	-6181.7243	-6180.6191	-6182.8732	-6184.2081	-6182.8623	-6184.6130	-6186.5826	-6189.0883	-6190.3904	-6192.2615	-6194.9642	-6194.8548	-6196.1788	-6197.5356	-6196.8353	-6186.2653	-6188.1473	-6203.3896	-6208.6637	-6228.4360	-6246.7968	-6229.0269	-6213.7189	-6211.7712	-6212.6357	-6215.0210	-6214.2988	-6215.8307	-6214.5943	-6217.7018	-6217.1876	-6218.5772	-6221.4987	-6222.3850	-6225.4598	-6226.6634	-6227.7795	-6257.5200	-6318.4236	-6379.3053	-6400.6642	-6400.2703	-6402.0976	-6402.7870	-6402.6885	-6403.0934	-6405.7413	-6405.4897	-6407.3498	-6354.4011	-6247.2892	-6241.8400	-6242.4309	-6246.9828	-6246.3919	-6249.4557	-6248.4381	-6249.3463	-6251.2612	-6272.3247	-6332.2872	-6394.9525	-6426.3124	-6427.4395	-6427.5708	-6429.4090	-6429.0589
-6088.1368	-6090.3908	-6092.6339	-6120.6019	-6184.0221	-6245.0898	-6263.5491	-6264.5886	-6267.1272	-6268.1338	-6269.4797	-6268.3308	-6150.3534	-6104.6265	-6106.2787	-6106.6617	-6109.1674	-6112.2859	-6113.1066	-6111.9576	-6115.3825	-6118.2712	-6119.8031	-6121.8712	-6124.1799	-6124.3660	-6125.7556	-6126.8717	-6128.1629	-6128.3708	-6132.1567	-6134.2795	-6133.6120	-6137.8575	-6140.2429	-6141.2167	-6142.3328	-6144.5431	-6144.5322	-6144.8605	-6145.4623	-6146.8847	-6119.0153	-6144.7839	-6149.4342	-6152.3448	-6154.9053	-6158.5162	-6159.1946	-6160.2341	-6162.2584	-6163.0571	-6166.8759	-6167.3902	-6168.2218	-6169.8959	-6171.5810	-6171.3840	-6171.2746	-6173.5177	-6175.9797	-6176.2204	-6176.9098	-6178.8684	-6180.2581	-6181.3960	-6177.8399	-6181.4617	-6185.0397	-6186.8014	-6187.0093	-6189.1759	-6191.4190	-6192.5460	-6192.6117	-6190.0074	-6185.0835	-6210.5895	-6253.6903	-6315.7100	-6365.7043	-6371.3723	-6369.5231	-6365.2010	-6301.8682	-6217.5158	-6205.3263	-6208.0400	-6209.7907	-6209.8783	-6209.6813	-6211.6946	-6213.2703	-6214.7037	-6216.8812	-6217.9973	-6220.7328	-6229.3989	-6277.3033	-6339.4433	-6389.2188	-6395.5543	-6397.0971	-6397.0533	-6396.0795	-6398.5852	-6400.1609	-6400.8283	-6400.9815	-6402.1086	-6401.4739	-6283.9014	-6236.7629	-6235.5155	-6240.4613	-6242.5841	-6241.7963	-6241.9057	-6245.5056	-6246.2935	-6272.1386	-6333.0094	-6395.1166	-6422.2420	-6423.3909	-6423.0626	-6424.4960	-6424.9118
-6083.5630	-6085.8827	-6086.6705	-6090.0188	-6098.4770	-6150.1236	-6213.9706	-6259.8179	-6263.1114	-6251.0314	-6162.0723	-6102.1098	-6100.9062	-6099.6697	-6102.8101	-6104.3967	-6107.7121	-6106.5304	-6109.3863	-6107.6574	-6112.8221	-6115.2512	-6114.3868	-6117.7241	-6120.5909	-6121.3897	-6122.2213	-6123.1514	-6126.0073	-6127.9440	-6129.2789	-6129.6838	-6132.3208	-6134.4108	-6135.6691	-6135.5488	-6134.2795	-6138.8423	-6139.4222	-6141.0636	-6142.2672	-6143.2301	-6144.4884	-6144.8933	-6146.6550	-6148.8762	-6150.8129	-6151.9728	-6149.3139	-6156.0542	-6159.4900	-6159.1070	-6161.4596	-6162.4006	-6163.2322	-6164.3373	-6164.0200	-6165.8145	-6166.3507	-6168.4844	-6169.8303	-6172.6096	-6173.0910	-6175.1262	-6175.2357	-6176.9864	-6180.1049	-6179.4593	-6181.5821	-6181.9431	-6185.7510	-6187.6658	-6189.1211	-6189.7230	-6191.1235	-6182.1510	-6197.6778	-6257.6732	-6319.7257	-6363.7019	-6366.7657	-6364.9384	-6366.4702	-6367.5863	-6369.5450	-6356.6880	-6246.2278	-6203.6413	-6205.0637	-6205.8297	-6207.7336	-6211.3992	-6210.1846	-6213.5329	-6214.8350	-6214.6928	-6216.8046	-6242.3324	-6300.8944	-6362.3123	-6390.3021	-6391.8887	-6393.4753	-6392.9610	-6394.2303	-6394.6570	-6396.5062	-6396.8126	-6397.2503	-6399.2636	-6400.4344	-6322.9099	-6234.2462	-6231.9484	-6234.7933	-6238.2401	-6240.1112	-6238.9076	-6240.9209	-6244.8819	-6259.8507	-6317.6467	-6381.1545	-6418.0293	-6419.4408	-6419.9770	-6420.7210	-6422.2529
-6080.4882	-6081.2214	-6084.3289	-6086.9003	-6088.2352	-6091.1458	-6092.8528	-6094.0674	-6094.1987	-6095.3695	-6098.5317	-6099.8119	-6100.4247	-6100.6873	-6101.2563	-6103.5323	-6105.1954	-6103.6307	-6101.7925	-6104.2763	-6106.6617	-6109.8787	-6114.5400	-6114.2993	-6118.8840	-6116.8706	-6119.1794	-6121.2365	-6124.0815	-6124.7270	-6124.3441	-6127.9878	-6126.7185	-6125.5805	-6128.9945	-6132.9993	-6136.3038	-6134.9688	-6136.6758	-6137.8575	-6139.5645	-6139.5645	-6143.7334	-6144.6416	-6143.7444	-6145.8781	-6148.9637	-6147.1911	-6151.2944	-6153.8220	-6154.7083	-6154.5989	-6156.6451	-6158.2317	-6158.7569	-6159.5119	-6160.3325	-6164.3264	-6164.7422	-6166.6352	-6167.4887	-6169.2066	-6172.0187	-6171.3731	-6172.4892	-6173.8898	-6175.0496	-6175.6186	-6177.9165	-6180.1158	-6181.4507	-6182.0526	-6184.6349	-6186.9437	-6189.6901	-6215.3602	-6275.0492	-6335.4057	-6358.8546	-6359.3032	-6359.8612	-6361.1633	-6362.0606	-6363.3299	-6363.3955	-6363.7347	-6348.1423	-6221.6191	-6199.4395	-6199.7678	-6202.1860	-6206.3002	-6203.8273	-6207.6680	-6208.1494	-6209.4625	-6212.1980	-6248.9962	-6311.1690	-6370.0483	-6386.5599	-6387.8948	-6387.6979	-6389.2735	-6389.2298	-6390.8273	-6390.9039	-6392.9501	-6394.2631	-6394.4819	-6395.7293	-6374.9066	-6248.4928	-6230.9855	-6231.9922	-6234.5089	-6236.4894	-6239.3671	-6236.9818	-6241.1288	-6248.2083	-6297.9072	-6361.7433	-6409.9650	-6414.4403	-6416.7491	-6416.6287	-6416.5412
-6077.0853	-6080.0615	-6081.6043	-6082.2827	-6085.1496	-6088.1586	-6089.8875	-6089.9531	-6091.4850	-6092.5136	-6094.0564	-6095.5008	-6096.9232	-6096.6169	-6097.0327	-6099.8557	-6100.1949	-6100.3700	-6102.7772	-6101.3657	-6103.2587	-6106.0270	-6107.2416	-6111.4981	-6110.8197	-6113.3582	-6113.7412	-6117.0567	-6117.0348	-6116.9691	-6121.0724	-6123.3921	-6124.8365	-6124.1690	-6129.3884	-6130.0449	-6129.8370	-6131.3470	-6132.8898	-6134.5421	-6136.0959	-6135.4831	-6137.9122	-6137.7919	-6140.4289	-6141.7091	-6140.5493	-6145.5170	-6148.1103	-6148.7668	-6149.5108	-6152.5090	-6153.6141	-6154.3910	-6156.2949	-6170.7385	-6199.7897	-6257.7608	-6288.9675	-6257.4872	-6202.0218	-6167.2698	-6165.2893	-6164.7641	-6167.5434	-6169.9506	-6169.0643	-6170.1476	-6173.2661	-6174.4041	-6176.2751	-6180.2799	-6181.5930	-6183.4860	-6193.4980	-6244.8272	-6305.7527	-6350.7684	-6355.5719	-6355.0030	-6355.6157	-6356.7756	-6358.1980	-6358.7998	-6358.9968	-6360.5178	-6361.0758	-6320.5901	-6201.6279	-6196.1131	-6197.9514	-6202.0437	-6200.3149	-6202.2188	-6203.2474	-6204.9871	-6211.5962	-6251.7098	-6314.2109	-6370.1905	-6382.3581	-6382.9052	-6383.4305	-6385.0827	-6385.9909	-6386.1988	-6385.7064	-6387.7307	-6390.1598	-6390.1270	-6390.7726	-6359.9269	-6236.3799	-6225.1643	-6227.1996	-6231.3247	-6232.2548	-6234.6073	-6231.1934	-6233.6444	-6240.7677	-6271.8432	-6335.0008	-6394.3944	-6411.7267	-6411.5406	-6411.3984	-6412.6458
-6073.0476	-6075.6081	-6075.8050	-6077.5448	-6080.0287	-6083.1691	-6082.6110	-6085.2152	-6086.9003	-6087.3161	-6088.9684	-6090.5221	-6091.5288	-6093.0607	-6093.3671	-6092.0540	-6096.3652	-6096.5293	-6097.3062	-6098.2253	-6099.7791	-6102.0879	-6103.9918	-6105.1079	-6107.6684	-6107.9857	-6108.2483	-6111.4105	-6113.0081	-6115.4153	-6118.6323	-6119.9672	-6120.2736	-6122.3307	-6123.8517	-6124.9021	-6125.2851	-6126.9045	-6128.4802	-6130.9531	-6130.2637	-6133.3713	-6135.9536	-6135.9098	-6136.8837	-6138.2296	-6138.5907	-6140.5602	-6142.2562	-6144.8605	-6144.5431	-6147.9789	-6149.7406	-6157.0718	-6198.9252	-6260.0914	-6313.5216	-6321.6953	-6322.8114	-6324.7372	-6324.8685	-6303.9035	-6189.9309	-6160.5076	-6159.3915	-6161.7769	-6160.9015	-6165.3440	-6168.1890	-6167.6309	-6169.3050	-6174.4041	-6176.0454	-6178.3104	-6202.5908	-6262.4002	-6322.6801	-6348.3392	-6348.6347	-6349.4881	-6350.4839	-6352.3331	-6353.0334	-6352.9021	-6353.6790	-6356.6333	-6357.5853	-6355.9987	-6231.0949	-6190.7953	-6192.1630	-6195.6426	-6196.1131	-6200.3805	-6199.4833	-6199.5708	-6205.9938	-6231.8937	-6291.7468	-6352.9021	-6377.5108	-6377.3576	-6380.1916	-6380.6512	-6380.3338	-6381.6907	-6383.7040	-6383.8681	-6384.9186	-6385.8815	-6387.7635	-6366.4593	-6237.2663	-6222.0677	-6223.1072	-6228.3485	-6228.4798	-6230.0992	-6229.8038	-6231.8609	-6236.3362	-6243.8096	-6287.5998	-6350.7355	-6402.1414	-6407.5030	-6409.2647	-6409.8774
-6065.1912	-6070.3012	-6071.2422	-6075.4658	-6076.8008	-6078.0153	-6079.3831	-6082.4359	-6082.4250	-6083.3879	-6085.7514	-6083.6177	-6085.7186	-6087.0207	-6087.7647	-6089.7890	-6091.6929	-6092.6887	-6092.5245	-6094.3519	-6094.7129	-6097.9409	-6099.1773	-6101.6830	-6103.2259	-6106.1146	-6106.8368	-6106.7273	-6106.3553	-6110.2507	-6110.3820	-6113.2269	-6115.5357	-6114.9558	-6118.6542	-6121.0505	-6120.9630	-6123.1733	-6126.2918	-6126.3465	-6125.4383	-6129.2461	-6132.0911	-6132.0254	-6133.4479	-6136.3366	-6137.6277	-6137.8794	-6139.9146	-6142.8033	-6144.4994	-6146.3267	-6156.5575	-6209.9658	-6271.7119	-6313.5544	-6315.8632	-6316.6838	-6319.0801	-6319.7914	-6319.5288	-6321.4327	-6316.2461	-6201.2450	-6157.3891	-6157.3125	-6158.6256	-6161.7331	-6163.2869	-6162.8273	-6167.5434	-6170.4321	-6172.0296	-6174.6229	-6213.4672	-6275.3447	-6331.3134	-6344.1703	-6344.2469	-6344.8706	-6346.2712	-6346.6323	-6347.3654	-6349.7070	-6350.7684	-6351.9392	-6351.9829	-6353.8540	-6274.0754	-6186.6263	-6187.7862	-6190.2591	-6194.1326	-6195.2268	-6193.7715	-6195.2487	-6199.9210	-6222.1662	-6282.0193	-6344.4548	-6373.1011	-6374.8628	-6375.3661	-6375.4865	-6375.6944	-6378.2658	-6378.5175	-6379.6992	-6380.1369	-6381.8439	-6383.0037	-6320.8856	-6219.1352	-6219.4307	-6217.5158	-6222.9321	-6222.3850	-6225.0987	-6226.2148	-6226.6524	-6230.5807	-6230.7120	-6238.4261	-6287.5779	-6350.6808	-6399.4278	-6404.5268	-6406.0805
-6061.8867	-6066.3402	-6066.7997	-6067.2593	-6070.0167	-6072.9710	-6073.7698	-6073.7698	-6074.3060	-6078.7266	-6080.4117	-6081.1119	-6082.4469	-6084.3180	-6084.1210	-6084.0772	-6086.6705	-6087.5678	-6088.5197	-6088.0055	-6090.8832	-6091.9227	-6094.3081	-6096.0916	-6099.3743	-6102.0441	-6101.4095	-6102.2301	-6104.6483	-6104.6921	-6106.9790	-6107.9638	-6111.4543	-6117.3193	-6124.1362	-6130.7999	-6122.5715	-6118.8621	-6117.3193	-6121.9696	-6122.9107	-6124.0486	-6124.4754	-6126.6638	-6128.6115	-6129.7713	-6131.9050	-6131.4455	-6136.0630	-6137.8028	-6139.5973	-6143.7115	-6185.6197	-6248.2412	-6302.0433	-6309.6590	-6310.1514	-6312.2413	-6313.9811	-6314.7471	-6315.2395	-6316.7495	-6317.9859	-6306.9454	-6180.0502	-6151.1522	-6153.5266	-6155.0694	-6157.3454	-6159.8073	-6163.6589	-6165.7051	-6167.2151	-6170.7166	-6210.2503	-6272.6091	-6327.5493	-6338.8962	-6339.6950	-6340.5922	-6341.9709	-6342.6712	-6343.9515	-6345.2536	-6345.5490	-6346.8620	-6348.7550	-6350.1775	-6302.3716	-6188.2239	-6184.3613	-6185.6853	-6188.9023	-6189.4713	-6189.9637	-6190.8719	-6195.4566	-6208.2151	-6260.6823	-6324.0807	-6367.9693	-6369.7091	-6369.9279	-6370.5407	-6373.1887	-6373.2324	-6373.6920	-6374.4142	-6376.7120	-6376.3947	-6376.7448	-6261.5139	-6214.5943	-6216.0824	-6215.1195	-6215.2946	-6219.6714	-6219.9121	-6221.2361	-6219.6823	-6226.1491	-6229.4098	-6229.8585	-6232.8128	-6263.9759	-6326.1487	-6384.4918	-6402.4259
-6056.3938	-6061.9414	-6063.2326	-6063.9876	-6066.3949	-6067.6641	-6070.1589	-6070.5966	-6072.6975	-6073.0805	-6075.9254	-6075.8269	-6078.0153	-6078.7594	-6079.7004	-6078.3545	-6082.1952	-6083.8037	-6085.1824	-6084.0772	-6087.0207	-6087.8085	-6090.5440	-6090.9489	-6093.9908	-6096.5512	-6099.0351	-6099.1773	-6100.3043	-6100.6435	-6105.5018	-6119.4967	-6170.8369	-6234.7058	-6275.7823	-6278.0692	-6273.0468	-6229.6287	-6163.8231	-6117.6038	-6115.9187	-6117.0895	-6118.2822	-6120.8536	-6121.5210	-6123.0639	-6124.0377	-6128.4911	-6130.9750	-6132.1567	-6133.7761	-6158.8554	-6220.4155	-6281.2206	-6304.4834	-6305.7746	-6307.0876	-6307.2080	-6308.6414	-6309.9873	-6310.6110	-6311.2018	-6312.7228	-6313.4887	-6260.9449	-6152.6840	-6148.7668	-6150.6816	-6153.2859	-6152.5418	-6158.7022	-6159.4462	-6161.4486	-6168.0029	-6209.1014	-6271.7666	-6325.2733	-6335.3619	-6335.4057	-6336.3795	-6337.4300	-6338.1850	-6340.1655	-6339.9795	-6341.5661	-6342.4524	-6344.6518	-6344.6846	-6308.7508	-6172.8831	-6155.1898	-6179.5687	-6184.3723	-6184.6349	-6186.3637	-6187.4579	-6188.1035	-6193.8043	-6223.9826	-6286.5712	-6346.6432	-6364.5773	-6365.6715	-6367.3456	-6366.7766	-6367.5863	-6368.5930	-6370.3547	-6370.1249	-6371.8756	-6330.2958	-6213.5767	-6210.7098	-6210.4691	-6211.0053	-6211.2132	-6213.4891	-6217.1876	-6217.4939	-6217.2204	-6221.4331	-6223.3479	-6223.5668	-6226.4117	-6228.2938	-6229.3551	-6231.7296	-6242.2011
-6052.2139	-6052.3562	-6052.7829	-6060.1141	-6063.8235	-6065.6070	-6066.7122	-6068.3973	-6068.3644	-6068.4629	-6066.8216	-6070.1261	-6072.2926	-6073.5400	-6076.8227	-6075.9254	-6078.4530	-6080.0177	-6080.0506	-6081.2104	-6081.3636	-6077.8403	-6085.1058	-6085.5216	-6088.1805	-6091.4522	-6093.5093	-6094.4175	-6096.2339	-6104.6812	-6139.0393	-6201.3325	-6258.5814	-6270.5411	-6270.6286	-6271.8760	-6271.5697	-6274.3489	-6269.0420	-6188.3990	-6115.9734	-6112.0452	-6114.2117	-6115.0652	-6116.2688	-6118.2822	-6119.2888	-6123.4140	-6124.6942	-6125.8103	-6129.6947	-6159.5338	-6221.8270	-6281.4941	-6299.8330	-6301.9339	-6300.9382	-6301.2227	-6303.2907	-6305.2384	-6305.4572	-6306.9344	-6307.4706	-6309.6590	-6305.5120	-6175.9797	-6142.2125	-6146.6002	-6150.0032	-6150.3534	-6153.0014	-6155.6165	-6156.8858	-6160.3435	-6198.9909	-6261.8640	-6318.2157	-6331.2805	-6330.4818	-6330.6350	-6332.4404	-6333.9832	-6334.6726	-6335.7121	-6336.5218	-6338.8962	-6339.3667	-6340.6251	-6294.5918	-6179.5140	-6175.6514	-6175.8922	-6179.4374	-6181.4179	-6184.0003	-6180.6410	-6184.9850	-6189.7230	-6189.5260	-6226.0069	-6289.6350	-6347.4201	-6362.2575	-6361.7870	-6363.0235	-6362.8594	-6365.6058	-6366.8094	-6367.4769	-6323.0630	-6209.4843	-6204.9981	-6206.3440	-6207.0880	-6207.0443	-6209.9658	-6210.5457	-6212.2089	-6210.1190	-6214.1457	-6216.8374	-6219.2228	-6220.5796	-6223.4574	-6225.0330	-6225.7005	-6225.9412	-6228.7862
-6047.9246	-6047.2462	-6047.5088	-6056.2078	-6058.1117	-6055.8467	-6056.7111	-6060.2673	-6059.9390	-6061.4490	-6064.6441	-6066.5699	-6068.6818	-6069.3164	-6069.7650	-6073.3103	-6075.0172	-6073.5510	-6076.4397	-6077.0634	-6078.8469	-6079.9630	-6081.9107	-6082.1186	-6084.9854	-6087.6334	-6089.2528	-6090.8066	-6095.2163	-6123.6110	-6183.9893	-6245.4947	-6266.3175	-6266.6348	-6266.9849	-6265.4530	-6268.8998	-6270.5520	-6272.3028	-6271.9964	-6206.2893	-6112.1765	-6110.2069	-6109.5285	-6112.8549	-6114.4087	-6116.4548	-6118.7527	-6120.1861	-6122.4839	-6129.3555	-6173.8022	-6237.2334	-6288.9128	-6296.9334	-6296.8787	-6296.8021	-6298.6950	-6298.5528	-6300.8944	-6301.2774	-6275.8152	-6239.8924	-6287.2496	-6305.8621	-6200.8073	-6140.5055	-6140.6587	-6140.6587	-6144.9918	-6147.8039	-6150.7254	-6152.4980	-6153.6360	-6176.9536	-6237.9447	-6299.1546	-6324.4965	-6326.1487	-6327.4289	-6328.6873	-6327.6368	-6328.9499	-6332.4076	-6331.4884	-6333.1188	-6333.3486	-6334.9461	-6225.6348	-6170.4977	-6172.0077	-6173.1676	-6175.7937	-6178.3760	-6178.4417	-6177.8070	-6179.9626	-6184.6896	-6186.5388	-6190.0950	-6222.5054	-6285.0065	-6343.5466	-6359.1828	-6360.9883	-6360.8460	-6361.4697	-6362.9469	-6285.3567	-6201.5951	-6198.7173	-6201.9890	-6202.6784	-6205.6327	-6205.8187	-6204.2212	-6202.9957	-6208.8716	-6207.3835	-6210.6551	-6211.4211	-6215.1086	-6217.8331	-6218.3146	-6219.3979	-6221.4550	-6222.2428	-6223.1729
-6044.3356	-6045.2876	-6045.1125	-6043.9746	-6047.7386	-6052.3671	-6055.3543	-6057.9476	-6061.8539	-6069.6775	-6107.8872	-6167.6419	-6181.5383	-6121.5538	-6081.0791	-6068.4848	-6067.9377	-6070.2355	-6071.0781	-6074.0105	-6074.6671	-6075.8160	-6076.5600	-6079.6019	-6081.0025	-6082.5016	-6084.6572	-6086.9222	-6098.1488	-6151.2178	-6213.0296	-6258.1766	-6261.9078	-6261.2294	-6261.3716	-6263.6804	-6264.0306	-6265.3764	-6266.6895	-6268.8779	-6268.0572	-6163.2541	-6103.5541	-6105.0860	-6107.3948	-6107.6684	-6106.5960	-6112.8002	-6115.7983	-6117.0676	-6125.8978	-6176.9426	-6240.6145	-6286.3414	-6289.0004	-6290.8496	-6291.4842	-6294.0228	-6294.7997	-6294.1650	-6297.1194	-6298.9029	-6299.2750	-6298.8592	-6300.6099	-6197.0432	-6138.4046	-6135.6582	-6138.7548	-6140.1663	-6141.8076	-6145.8343	-6148.8105	-6148.4166	-6160.6827	-6216.6186	-6279.1197	-6320.2072	-6322.7238	-6324.0150	-6324.1244	-6324.5840	-6327.3742	-6328.0745	-6328.2058	-6329.6611	-6330.7225	-6306.0809	-6174.9512	-6167.5981	-6167.8826	-6168.1890	-6172.0077	-6173.7585	-6174.4697	-6173.3536	-6175.1481	-6180.5754	-6179.6125	-6184.0878	-6185.5650	-6193.3120	-6244.6631	-6306.9782	-6353.0881	-6348.7222	-6241.1616	-6201.8139	-6194.2201	-6195.4785	-6196.2335	-6198.2359	-6198.7611	-6201.0480	-6200.6431	-6200.3368	-6202.2735	-6204.8449	-6204.6589	-6204.3963	-6206.3877	-6209.3859	-6213.4235	-6213.4454	-6215.7870	-6216.4544	-6219.0915	-6219.8465
-6042.5740	-6041.2062	-6037.7266	-6045.1125	-6049.4784	-6052.0936	-6052.7610	-6064.2064	-6115.2950	-6176.7566	-6221.4878	-6224.6172	-6223.8513	-6227.1011	-6228.5235	-6188.6069	-6077.9825	-6064.6004	-6063.7797	-6065.3663	-6068.8021	-6068.4629	-6071.2422	-6071.1437	-6074.9734	-6077.3916	-6079.0986	-6081.8122	-6108.3358	-6167.8169	-6228.8190	-6255.4192	-6255.7036	-6255.9663	-6257.2027	-6257.2246	-6259.1723	-6259.9929	-6261.4920	-6263.3412	-6264.5230	-6217.3517	-6102.8976	-6100.1621	-6099.9104	-6104.3091	-6104.6921	-6109.1784	-6110.0647	-6112.0014	-6118.3806	-6160.4310	-6224.2671	-6277.3361	-6285.4114	-6286.8557	-6288.6612	-6289.0551	-6289.6022	-6291.8125	-6292.6331	-6294.2526	-6295.1389	-6295.5437	-6297.7978	-6203.4553	-6133.0758	-6132.2224	-6133.8637	-6137.4527	-6139.0065	-6141.5669	-6143.1097	-6144.6963	-6148.4166	-6166.5258	-6223.3042	-6284.8533	-6317.7780	-6318.5440	-6318.8503	-6321.8375	-6322.0235	-6321.7062	-6323.2600	-6326.0065	-6315.3270	-6183.5407	-6160.0699	-6162.3459	-6163.1009	-6164.6109	-6166.2960	-6167.7732	-6171.4825	-6168.2656	-6171.0667	-6173.4302	-6178.0368	-6178.7590	-6180.4222	-6180.9365	-6183.9565	-6185.5650	-6186.3747	-6186.7358	-6187.5455	-6191.2439	-6192.1959	-6192.6007	-6194.3843	-6196.0365	-6196.1897	-6197.0541	-6198.0061	-6193.4651	-6198.4657	-6200.8620	-6199.1878	-6202.6455	-6201.7483	-6201.9234	-6202.9300	-6209.2983	-6210.4472	-6211.9901	-6211.7275	-6214.2004
-6036.6981	-6034.7285	-6035.2647	-6043.0226	-6045.0359	-6045.8894	-6063.7141	-6122.8122	-6185.3461	-6217.5268	-6218.6976	-6219.8027	-6222.1662	-6222.2866	-6222.3522	-6224.6391	-6215.1304	-6085.3575	-6057.6631	-6059.8843	-6062.9262	-6063.4186	-6065.5851	-6068.2878	-6071.4610	-6074.4482	-6074.8531	-6084.5806	-6134.8813	-6195.5332	-6244.2473	-6249.3901	-6250.7469	-6252.5414	-6252.3335	-6253.9857	-6253.8982	-6256.2508	-6257.6404	-6257.5966	-6259.9929	-6258.1766	-6137.1244	-6096.6059	-6096.9998	-6099.0351	-6099.3414	-6103.6964	-6105.1517	-6107.7778	-6112.8002	-6157.4001	-6221.8270	-6274.2505	-6280.8814	-6280.9142	-6283.2448	-6282.9275	-6285.3457	-6287.0746	-6287.2715	-6288.2782	-6289.7007	-6291.1341	-6285.2910	-6155.9557	-6126.6419	-6128.1957	-6128.8084	-6131.4236	-6133.5135	-6136.6648	-6138.9627	-6140.9651	-6141.7091	-6140.8228	-6169.5020	-6229.4098	-6289.8976	-6314.6595	-6316.0054	-6317.4498	-6317.7233	-6318.2048	-6318.9488	-6315.6334	-6201.0042	-6154.9600	-6157.2797	-6160.9125	-6160.0043	-6160.4967	-6161.7988	-6163.0134	-6165.3331	-6163.0024	-6166.4273	-6171.5372	-6171.6248	-6174.3493	-6176.1876	-6176.6800	-6179.1857	-6181.0131	-6181.9213	-6183.4094	-6184.7990	-6186.2543	-6186.1668	-6188.3333	-6190.1606	-6191.3424	-6190.9047	-6189.9418	-6189.7120	-6193.9138	-6193.6402	-6193.3229	-6196.3538	-6197.4918	-6199.3739	-6199.8663	-6203.3787	-6205.7640	-6206.1798	-6207.0114	-6208.6856	-6211.8916
-6031.4459	-6028.9511	-6034.5972	-6039.5649	-6038.8099	-6047.3994	-6091.7476	-6156.3278	-6206.4096	-6213.0077	-6212.7122	-6215.2617	-6216.3997	-6216.9906	-6216.9687	-6220.0544	-6220.6234	-6188.9242	-6060.0922	-6054.2273	-6056.9409	-6060.3330	-6060.5627	-6060.2345	-6065.3554	-6067.6970	-6069.0428	-6081.4074	-6135.7895	-6196.3976	-6240.7021	-6244.4333	-6246.4467	-6246.4576	-6247.2126	-6249.1712	-6249.8825	-6252.1475	-6251.6004	-6253.1104	-6255.1237	-6256.0210	-6145.7139	-6089.8000	-6091.3647	-6095.4132	-6095.9822	-6098.1488	-6100.8186	-6103.2587	-6104.6593	-6124.2456	-6185.5212	-6248.8758	-6277.3361	-6277.5768	-6277.4784	-6279.7981	-6280.4765	-6282.1725	-6283.6278	-6285.1816	-6285.9257	-6286.6588	-6253.8873	-6133.8309	-6123.6657	-6122.9654	-6123.4687	-6127.9002	-6127.7580	-6132.9883	-6133.3166	-6136.1396	-6136.5445	-6133.7433	-6141.0745	-6164.8079	-6224.2780	-6285.0612	-6312.4930	-6312.8760	-6314.3750	-6314.9659	-6276.0997	-6162.7070	-6150.9114	-6152.7716	-6155.4524	-6155.3539	-6155.6165	-6156.1199	-6156.7764	-6157.9472	-6161.5252	-6160.7155	-6163.1009	-6165.9239	-6167.1604	-6169.1737	-6171.2090	-6173.7475	-6175.1809	-6175.7499	-6177.2490	-6179.1639	-6179.9736	-6179.7876	-6182.7200	-6183.6610	-6183.9346	-6183.0921	-6185.0069	-6187.8956	-6186.9327	-6188.9461	-6188.9242	-6189.9746	-6192.0646	-6193.3010	-6193.1369	-6194.8001	-6195.7520	-6199.0237	-6200.1726	-6200.5994	-6202.1531	-6207.0990
-6024.8040	-6026.2484	-6032.3103	-6033.8531	-6035.4397	-6064.0423	-6126.8608	-6187.5236	-6206.1032	-6207.8540	-6208.4230	-6210.4035	-6210.9396	-6212.6138	-6214.3973	-6215.4368	-6216.2247	-6217.3079	-6132.8132	-6052.5969	-6053.0674	-6054.7197	-6055.9342	-6058.4290	-6060.9785	-6063.8672	-6064.5894	-6080.3351	-6137.3104	-6198.1483	-6237.7039	-6240.8443	-6241.2163	-6242.3543	-6243.4376	-6244.6193	-6246.2169	-6246.0856	-6246.8843	-6248.9633	-6251.5238	-6250.8454	-6137.5621	-6088.3994	-6088.5963	-6090.0844	-6091.1677	-6093.7063	-6097.4266	-6098.4442	-6099.0241	-6109.0142	-6163.4620	-6228.0749	-6270.2347	-6272.8827	-6273.2657	-6275.7276	-6275.6620	-6276.5483	-6277.4565	-6279.6121	-6281.4503	-6276.5155	-6171.2746	-6118.4025	-6120.1970	-6118.8840	-6120.6675	-6123.1186	-6125.6352	-6127.7142	-6128.8631	-6130.4388	-6134.1701	-6131.4127	-6135.0892	-6138.0217	-6139.3238	-6143.5802	-6151.5023	-6179.1310	-6166.5805	-6146.2610	-6146.6878	-6148.3619	-6148.8871	-6151.2506	-6152.3230	-6152.8263	-6153.9971	-6155.5290	-6153.6579	-6154.9819	-6155.8135	-6159.7854	-6158.5162	-6160.3982	-6161.9082	-6165.6066	-6168.1999	-6169.7865	-6170.1804	-6172.5986	-6173.9007	-6173.7694	-6174.5025	-6174.3822	-6172.1390	-6176.5049	-6178.6933	-6179.0435	-6180.6191	-6179.4812	-6181.1553	-6181.9431	-6184.3066	-6187.0312	-6186.7358	-6188.5522	-6189.9090	-6189.8543	-6193.2354	-6192.6883	-6195.5332	-6196.9447	-6196.4523	-6197.5794
-6022.2545	-6023.2065	-6028.3712	-6029.2137	-6033.4592	-6072.8179	-6136.7962	-6191.5831	-6202.1422	-6203.5647	-6204.5823	-6205.4358	-6206.9567	-6207.8102	-6209.4187	-6209.2655	-6211.9463	-6214.1347	-6187.3048	-6055.2121	-6047.4213	-6050.6602	-6052.9580	-6052.4547	-6055.9342	-6058.1445	-6060.3877	-6074.4920	-6128.2832	-6189.2306	-6231.8390	-6236.9052	-6237.9118	-6237.8352	-6239.1702	-6239.9908	-6240.7021	-6241.1397	-6242.8795	-6245.1336	-6246.2278	-6243.5142	-6118.1290	-6083.9897	-6083.1253	-6085.3356	-6088.8808	-6088.0273	-6092.2838	-6092.8966	-6093.6844	-6095.3804	-6108.2483	-6164.2936	-6227.9764	-6266.8974	-6270.0159	-6270.8694	-6270.9460	-6271.7885	-6275.0711	-6274.4474	-6275.7386	-6190.2919	-6111.7935	-6114.5947	-6115.1856	-6115.8093	-6116.8159	-6117.9539	-6119.0591	-6121.5210	-6124.2894	-6126.6529	-6126.9921	-6127.0030	-6126.6091	-6131.7519	-6134.2357	-6135.0454	-6135.7348	-6137.9013	-6139.6411	-6140.8338	-6142.1578	-6144.1164	-6145.7687	-6147.2239	-6146.8629	-6146.6331	-6148.6792	-6147.3334	-6148.3947	-6152.0385	-6152.9357	-6154.5880	-6152.6184	-6155.6384	-6158.0894	-6160.1903	-6160.2560	-6163.4182	-6164.1185	-6164.6766	-6165.6832	-6168.8455	-6170.1585	-6171.9968	-6174.6885	-6174.8308	-6172.9925	-6176.8332	-6177.1724	-6178.4964	-6176.1001	-6179.0763	-6177.3694	-6180.3784	-6182.2823	-6181.3413	-6183.7048	-6186.7577	-6187.2829	-6189.1211	-6190.9813	-6193.3885	-6192.1521	-6193.7168
-6014.5623	-6017.0899	-6020.7774	-6023.9068	-6036.1400	-6087.6115	-6151.3163	-6194.6578	-6197.1198	-6198.0936	-6198.4110	-6200.2821	-6201.4529	-6203.5866	-6204.7464	-6205.5342	-6206.9020	-6209.3202	-6204.6698	-6072.1285	-6042.7053	-6045.9551	-6047.9794	-6047.3338	-6053.8224	-6056.2297	-6058.6698	-6063.3311	-6100.7639	-6161.8863	-6218.7413	-6232.8785	-6234.8371	-6235.8110	-6235.7891	-6237.1787	-6237.0912	-6237.5945	-6240.1221	-6241.0522	-6242.0261	-6221.1486	-6089.2638	-6080.2038	-6079.9521	-6080.8384	-6085.9483	-6086.5173	-6087.9726	-6089.5811	-6092.3057	-6093.8595	-6095.4570	-6106.4319	-6162.1270	-6225.1096	-6265.4202	-6266.5035	-6269.1296	-6270.3879	-6272.4012	-6269.4250	-6161.5690	-6107.0775	-6109.8021	-6110.5680	-6110.9400	-6111.5637	-6111.9029	-6112.2859	-6115.9843	-6117.9977	-6119.6390	-6122.7137	-6124.1690	-6124.5410	-6118.8183	-6128.3489	-6129.5744	-6130.5920	-6132.6163	-6134.3451	-6136.2819	-6136.3585	-6138.5250	-6140.8009	-6141.8514	-6142.0812	-6143.2739	-6143.4489	-6142.8033	-6143.5365	-6144.4337	-6146.1079	-6149.6640	-6149.3248	-6149.6750	-6153.6907	-6154.5551	-6153.9752	-6158.2426	-6159.3259	-6162.8273	-6162.9368	-6165.2565	-6166.5476	-6168.0139	-6168.5282	-6169.8303	-6170.7056	-6171.2856	-6173.4302	-6171.4935	-6171.8874	-6176.1110	-6177.8070	-6177.1833	-6175.2466	-6178.8247	-6181.2976	-6181.2976	-6183.5626	-6185.1382	-6185.0835	-6187.8956	-6187.0312	-6190.8390	-6198.2797
-6013.1507	-6017.1555	-6019.8692	-6022.6922	-6033.7765	-6086.2875	-6150.0908	-6191.4846	-6193.8481	-6194.7672	-6195.2268	-6197.9623	-6199.6474	-6199.1660	-6201.6060	-6203.9039	-6204.4729	-6205.6765	-6200.6979	-6067.6641	-6039.9807	-6039.2804	-6042.5193	-6045.0688	-6049.8395	-6051.6997	-6053.1987	-6054.7197	-6078.3545	-6138.0326	-6198.3125	-6225.6239	-6227.9874	-6229.2895	-6230.5150	-6229.0378	-6229.5083	-6232.2110	-6234.4104	-6234.6949	-6235.2529	-6130.8874	-6072.1285	-6073.5510	-6072.8616	-6074.7765	-6078.4202	-6079.5035	-6080.5867	-6084.8541	-6086.0140	-6087.4912	-6088.8480	-6089.8984	-6093.6516	-6127.5282	-6189.5588	-6247.0485	-6265.2233	-6260.2774	-6159.9824	-6101.8034	-6102.6350	-6103.6526	-6106.1693	-6105.6660	-6109.1237	-6109.8021	-6110.1413	-6107.2854	-6112.1874	-6114.9886	-6117.5928	-6115.5029	-6120.8536	-6122.1119	-6122.5058	-6118.6214	-6125.4055	-6126.6419	-6127.3203	-6131.4127	-6130.9969	-6132.2771	-6135.7567	-6135.0564	-6136.7086	-6137.2557	-6138.4265	-6139.7505	-6139.5207	-6141.2167	-6142.0812	-6142.8799	-6144.2586	-6145.4076	-6146.8410	-6148.7668	-6146.5237	-6149.8938	-6151.9400	-6155.0475	-6155.6822	-6154.6646	-6156.1746	-6158.9648	-6160.9672	-6160.2341	-6160.3325	-6160.0152	-6164.1513	-6163.6699	-6164.9720	-6167.8279	-6167.7732	-6171.3403	-6171.2527	-6172.3688	-6175.0934	-6175.7390	-6176.0672	-6179.3280	-6182.0197	-6183.0155	-6181.8994	-6185.6744	-6198.3562	-6249.6308
-6004.0469	-6010.7873	-6014.5185	-6015.2078	-6028.7870	-6084.3946	-6148.0665	-6185.9151	-6188.1801	-6189.0008	-6188.9789	-6192.9946	-6193.3010	-6193.6512	-6196.5617	-6198.0936	-6198.5094	-6198.1046	-6194.7454	-6063.3967	-6036.6653	-6036.6871	-6039.7071	-6042.2566	-6045.1125	-6046.4693	-6050.0255	-6051.0322	-6059.8843	-6109.6160	-6170.9464	-6219.0368	-6224.7595	-6225.5692	-6226.3789	-6227.0682	-6229.2676	-6229.1363	-6229.7928	-6232.0578	-6181.1991	-6072.8179	-6069.3273	-6071.8112	-6072.2379	-6073.8902	-6076.1771	-6077.2056	-6079.5801	-6081.9107	-6083.7380	-6085.8827	-6086.7252	-6089.3842	-6090.1610	-6091.8352	-6093.5093	-6093.8376	-6094.7020	-6097.8752	-6097.7439	-6099.9323	-6101.6721	-6102.7007	-6103.2915	-6105.1407	-6104.7031	-6106.0161	-6105.9723	-6105.4581	-6109.3206	-6111.1042	-6112.8768	-6114.8245	-6112.6908	-6114.5509	-6116.7722	-6110.5680	-6119.0043	-6124.3112	-6123.9283	-6123.1186	-6121.9587	-6122.9654	-6124.4207	-6130.0558	-6132.3865	-6133.5464	-6134.4436	-6134.2357	-6135.9427	-6132.4084	-6132.4412	-6138.1201	-6138.8861	-6141.3918	-6143.2520	-6142.6939	-6144.5103	-6146.0969	-6148.6792	-6146.0531	-6148.3182	-6151.0099	-6149.5546	-6153.0342	-6153.0670	-6154.5880	-6159.7854	-6160.4201	-6161.4377	-6164.6875	-6165.2018	-6167.3792	-6165.2674	-6166.2741	-6169.2613	-6168.6704	-6170.6728	-6171.7123	-6173.1238	-6176.2314	-6176.3408	-6177.9055	-6180.3675	-6189.3619	-6235.3623	-6297.8963
-6002.6463	-6008.3034	-6011.1374	-6011.6517	-6020.0880	-6070.7826	-6134.4545	-6181.1991	-6185.7619	-6186.6373	-6187.9832	-6188.4537	-6189.8214	-6191.0469	-6192.9946	-6194.8110	-6195.4238	-6196.6165	-6174.5682	-6042.5959	-6033.3936	-6034.4112	-6036.8513	-6040.5169	-6040.8123	-6044.3138	-6046.3162	-6047.6949	-6047.9903	-6054.9276	-6101.7487	-6163.4073	-6215.2399	-6221.8926	-6222.8337	-6224.8361	-6224.2452	-6224.3765	-6226.7509	-6201.6170	-6074.2403	-6063.3311	-6065.5742	-6067.1608	-6065.7602	-6070.0386	-6070.1918	-6073.9668	-6075.4658	-6076.2427	-6077.8184	-6080.2366	-6081.8341	-6082.3375	-6084.5149	-6086.6705	-6087.5787	-6089.4607	-6090.1392	-6091.7148	-6092.8309	-6094.4613	-6096.2011	-6095.2929	-6099.6806	-6101.0703	-6099.1554	-6097.2187	-6099.6040	-6102.1426	-6104.5936	-6104.2325	-6106.4647	-6109.4519	-6110.6774	-6112.4391	-6114.8245	-6115.5357	-6106.7492	-6117.4725	-6119.0700	-6116.0281	-6121.1709	-6123.2827	-6126.1714	-6128.9288	-6124.2675	-6127.5501	-6129.3118	-6130.1653	-6129.0163	-6130.1434	-6130.9750	-6132.5944	-6135.1330	-6136.8618	-6138.0326	-6138.2952	-6139.4660	-6142.6283	-6143.9194	-6146.0313	-6146.2829	-6148.7121	-6150.9880	-6160.4529	-6189.2634	-6226.3023	-6288.0812	-6291.7578	-6252.0709	-6195.5988	-6163.2103	-6162.6194	-6160.2122	-6162.6304	-6164.2389	-6165.5738	-6163.7027	-6165.5847	-6168.4734	-6170.5196	-6172.8940	-6173.1348	-6175.9031	-6196.5836	-6255.6380	-6317.3294
-5997.1972	-6005.0427	-6006.7277	-6007.6469	-6013.2164	-6053.4613	-6116.9253	-6172.3360	-6181.5930	-6182.2714	-6182.2495	-6184.0331	-6184.8866	-6187.0203	-6187.3595	-6189.2196	-6190.0512	-6191.9770	-6140.8557	-6030.3079	-6029.4544	-6028.4915	-6032.1243	-6033.3607	-6035.5492	-6038.9740	-6040.7029	-6042.0597	-6044.2590	-6045.7253	-6048.1325	-6085.2152	-6147.6835	-6206.1908	-6219.6714	-6219.6605	-6219.7480	-6215.3274	-6109.4300	-6058.3415	-6059.1622	-6060.5846	-6063.4514	-6064.1736	-6063.7031	-6064.9286	-6065.3991	-6068.7583	-6070.2465	-6070.1152	-6075.0500	-6076.1880	-6078.9564	-6079.5801	-6080.7837	-6084.0335	-6084.9854	-6085.2918	-6086.1453	-6088.6729	-6090.4018	-6091.3209	-6091.7367	-6093.6187	-6095.7306	-6094.7677	-6095.1397	-6097.0545	-6099.4071	-6100.0746	-6100.2825	-6101.7706	-6104.0028	-6105.9286	-6107.1650	-6109.0799	-6111.4543	-6113.2488	-6109.9224	-6110.7212	-6114.7151	-6114.4853	-6119.5077	-6120.8426	-6121.0943	-6122.8231	-6123.7860	-6124.1033	-6123.8736	-6124.7599	-6126.4231	-6127.4407	-6127.1781	-6129.8808	-6130.0558	-6130.6576	-6132.7804	-6135.7457	-6137.4636	-6139.0393	-6138.6563	-6142.1249	-6143.7663	-6146.7425	-6179.6344	-6241.3258	-6300.5880	-6318.7628	-6318.8285	-6317.4388	-6319.2771	-6320.3822	-6273.5721	-6163.1118	-6154.7849	-6156.6122	-6159.4681	-6158.2098	-6160.3982	-6161.6784	-6161.8426	-6164.0857	-6166.1537	-6168.2546	-6174.1633	-6219.5401	-6282.5555	-6334.7273
-5994.5820	-5998.9260	-6002.0664	-6003.8281	-6005.1193	-6016.3021	-6072.5334	-6137.0369	-6176.4612	-6178.4417	-6178.3432	-6180.5207	-6182.0635	-6182.7966	-6183.7486	-6184.6787	-6186.6701	-6173.6928	-6043.5259	-6024.5524	-6025.9748	-6024.1256	-6027.6709	-6027.8241	-6031.6976	-6033.9844	-6037.0154	-6038.6458	-6040.7138	-6042.0269	-6041.3266	-6044.2372	-6047.2134	-6085.3575	-6112.4500	-6086.1453	-6088.2790	-6055.2449	-6053.5817	-6055.3324	-6056.5908	-6057.9695	-6059.4248	-6059.9281	-6060.6940	-6059.9500	-6058.9543	-6065.9681	-6064.2064	-6068.0362	-6068.1784	-6068.9881	-6073.7479	-6076.4835	-6077.7199	-6080.3460	-6079.7880	-6082.2937	-6082.9283	-6083.2457	-6085.5216	-6082.3156	-6084.7228	-6089.1215	-6090.0844	-6090.3361	-6091.7695	-6093.8048	-6095.3038	-6095.2163	-6095.6430	-6097.4922	-6100.2059	-6101.1469	-6098.4770	-6104.6155	-6106.5851	-6107.0447	-6107.7778	-6098.8162	-6107.1541	-6111.4543	-6112.7236	-6111.8701	-6107.9857	-6106.1584	-6108.9486	-6114.2993	-6118.4682	-6119.8141	-6120.2627	-6122.0681	-6124.5957	-6126.1605	-6127.7252	-6127.1234	-6129.9792	-6131.5877	-6135.2861	-6133.9074	-6136.9056	-6137.5840	-6142.8581	-6176.5159	-6238.5902	-6297.4695	-6313.2808	-6312.2085	-6311.9021	-6313.9155	-6315.4474	-6315.8522	-6316.7166	-6292.3268	-6167.3792	-6151.6774	-6154.1065	-6154.1284	-6157.2359	-6155.3648	-6157.5751	-6158.0566	-6160.8468	-6163.8340	-6179.1529	-6235.8000	-6298.7279	-6337.4956
-5990.0849	-5994.0459	-5998.5868	-6000.3266	-6000.5564	-6004.6378	-6039.7071	-6103.0836	-6161.0985	-6173.4412	-6174.5354	-6176.2970	-6176.2642	-6177.3912	-6180.1377	-6181.1444	-6182.2605	-6083.9569	-6018.8297	-6021.6308	-6021.9372	-6021.8059	-6022.8673	-6023.6880	-6028.9730	-6028.7870	-6031.6647	-6034.1376	-6036.6871	-6038.1315	-6037.3984	-6040.8998	-6041.6877	-6042.6506	-6044.2919	-6047.0493	-6049.5660	-6051.3933	-6051.5574	-6051.4480	-6054.3367	-6055.7373	-6055.8467	-6056.0874	-6058.1774	-6052.8376	-6045.0578	-6047.4760	-6062.5323	-6064.6004	-6066.9857	-6068.2222	-6068.6161	-6071.0343	-6074.0543	-6073.9668	-6074.6233	-6075.1704	-6075.9911	-6078.5624	-6080.1381	-6081.6919	-6084.7885	-6085.4559	-6085.8170	-6083.3441	-6086.7143	-6090.7629	-6091.3318	-6089.7562	-6092.2947	-6092.3932	-6094.3409	-6096.6606	-6098.6740	-6101.7049	-6101.8362	-6103.2696	-6103.1712	-6100.9499	-6094.6801	-6093.8485	-6103.5104	-6116.7722	-6122.7684	-6136.4898	-6126.0620	-6120.5253	-6118.9277	-6119.4092	-6118.7198	-6121.8055	-6121.8274	-6122.0353	-6123.5672	-6126.0401	-6126.3246	-6126.6747	-6128.3270	-6131.5658	-6133.7652	-6135.0782	-6161.9301	-6220.4373	-6282.4351	-6307.9411	-6307.2627	-6308.0833	-6309.2979	-6310.7751	-6309.4292	-6311.2894	-6311.6942	-6313.1714	-6247.5299	-6149.5327	-6147.0817	-6150.2658	-6152.1041	-6151.9509	-6151.4476	-6155.6931	-6156.8639	-6158.5818	-6177.3146	-6237.1021	-6300.2816	-6332.4076
-5989.6253	-5988.5420	-5993.1049	-5995.6215	-5996.8361	-5999.7358	-6003.1169	-6042.4974	-6106.9352	-6161.9410	-6171.0558	-6171.8983	-6172.8612	-6174.7104	-6175.8265	-6167.6200	-6050.9228	-6013.7744	-6016.6303	-6018.3263	-6016.6522	-6018.7093	-6019.4753	-6021.7840	-6023.4801	-6026.0733	-6026.1718	-6031.6866	-6033.7437	-6033.2732	-6034.5863	-6037.2780	-6039.2038	-6039.5868	-6040.9655	-6043.3071	-6045.0250	-6046.3052	-6047.4213	-6048.6578	-6050.0802	-6050.5289	-6050.0036	-6051.3057	-6052.5969	-6055.1355	-6054.8729	-6056.5908	-6058.1992	-6059.5889	-6061.0114	-6064.0095	-6065.6836	-6066.5262	-6068.9772	-6067.2046	-6071.3516	-6074.9297	-6073.9887	-6076.6914	-6077.3150	-6078.7266	-6079.1752	-6080.4007	-6082.1733	-6082.5016	-6084.3836	-6085.1058	-6086.4079	-6087.6553	-6088.5854	-6088.8480	-6090.4127	-6091.4960	-6094.5707	-6095.7415	-6097.0217	-6099.4071	-6100.3919	-6097.3281	-6096.0150	-6114.0366	-6155.2773	-6217.8441	-6269.7752	-6275.2571	-6278.1021	-6272.2699	-6212.0010	-6127.5720	-6113.3363	-6114.0804	-6115.6780	-6115.8093	-6115.9515	-6116.1156	-6118.3150	-6120.3940	-6124.2018	-6127.1015	-6127.2218	-6132.5725	-6178.6715	-6241.3258	-6294.5261	-6301.6275	-6302.3825	-6302.3497	-6302.8749	-6305.0086	-6305.9387	-6305.0524	-6307.8536	-6308.8602	-6307.1642	-6192.2943	-6143.0112	-6144.9699	-6145.0902	-6147.8367	-6149.1388	-6152.2901	-6151.3929	-6151.9837	-6174.8636	-6234.9794	-6298.0166	-6327.1773
-5986.8351	-5981.4297	-5988.3341	-5991.1791	-5993.7942	-5995.6215	-5996.5626	-5999.1230	-6011.2140	-6061.2193	-6124.6614	-6167.0182	-6170.4868	-6168.5610	-6094.0674	-6011.2796	-6008.7083	-6011.5860	-6012.6802	-6014.1574	-6015.2297	-6016.7835	-6018.3701	-6017.9762	-6019.5847	-6023.2831	-6021.0619	-6027.1128	-6028.4478	-6029.6842	-6031.1504	-6032.2447	-6032.1462	-6034.9911	-6035.6805	-6038.2847	-6039.9260	-6040.2761	-6043.2086	-6043.0445	-6042.4755	-6043.6901	-6046.6554	-6048.1763	-6048.1763	-6049.6754	-6052.1921	-6053.3410	-6055.1902	-6056.8862	-6057.5208	-6058.8229	-6055.6716	-6061.3068	-6066.4277	-6066.8763	-6067.5766	-6069.5134	-6066.8216	-6069.2617	-6072.6647	-6072.6537	-6073.6276	-6077.4792	-6077.7418	-6079.0986	-6079.6457	-6080.7399	-6083.5520	-6082.9940	-6085.6748	-6084.6791	-6086.8894	-6090.6863	-6091.1239	-6093.4765	-6094.2643	-6097.0108	-6098.4661	-6094.6254	-6113.1941	-6173.8898	-6236.0955	-6269.0858	-6270.6177	-6272.0511	-6272.1934	-6272.5107	-6274.0973	-6259.1066	-6147.2239	-6108.1607	-6109.5395	-6112.2531	-6115.2074	-6115.6670	-6112.6361	-6117.0895	-6119.4530	-6120.4706	-6121.0943	-6141.3152	-6198.7502	-6261.3169	-6294.7778	-6295.8829	-6297.1741	-6297.9948	-6298.9467	-6300.1832	-6300.7412	-6301.8135	-6303.1375	-6303.2251	-6304.6475	-6257.5200	-6142.3985	-6140.4617	-6141.8733	-6146.4908	-6144.4994	-6145.5936	-6145.5936	-6150.4190	-6170.1038	-6230.0554	-6293.7164	-6324.5293
-5980.8279	-5980.6309	-5984.6466	-5988.4983	-5990.2490	-5989.8879	-5991.6167	-5993.7286	-5996.6392	-5997.1097	-5998.4446	-6001.1254	-6003.7077	-6003.4561	-6004.1782	-6005.3490	-6007.5156	-6009.9994	-6010.6231	-6013.3586	-6012.5161	-6013.5665	-6013.2711	-6015.2078	-6017.1884	-6020.8758	-6021.2479	-6021.9482	-6021.9919	-6025.5153	-6026.9596	-6028.7322	-6031.0410	-6033.3607	-6033.7109	-6034.3893	-6033.6671	-6034.0501	-6036.2932	-6038.8974	-6039.8275	-6041.3922	-6042.0706	-6043.5588	-6044.4888	-6046.4693	-6048.4717	-6049.9380	-6051.4808	-6053.1440	-6055.2449	-6053.0455	-6057.6631	-6058.9871	-6058.8339	-6061.6898	-6063.9001	-6063.9329	-6065.5961	-6068.1128	-6068.1784	-6067.2483	-6070.4544	-6072.4896	-6073.9777	-6075.5205	-6076.0239	-6079.2190	-6079.9959	-6079.8098	-6081.9545	-6081.3198	-6083.6067	-6084.5587	-6087.4036	-6088.7605	-6092.4370	-6093.9361	-6096.0150	-6120.2080	-6179.3608	-6240.0565	-6265.2014	-6265.4640	-6267.4883	-6268.4512	-6267.9369	-6268.4949	-6270.8912	-6271.5587	-6264.4354	-6149.2701	-6106.4647	-6107.8872	-6108.8720	-6111.1151	-6112.3078	-6113.8944	-6117.1551	-6116.4767	-6117.6694	-6152.0713	-6214.1894	-6274.0754	-6292.0094	-6292.2939	-6293.4429	-6293.8696	-6293.4429	-6295.7845	-6297.2616	-6298.0714	-6299.1656	-6300.0847	-6301.2555	-6282.0631	-6145.6373	-6135.2861	-6138.4812	-6140.8228	-6141.0526	-6144.3790	-6143.8866	-6144.9480	-6156.9514	-6210.3488	-6274.7210	-6317.9859
-5977.8516	-5980.1385	-5978.6832	-5983.0491	-5984.1324	-5985.7190	-5989.1219	-5990.5554	-5991.9997	-5994.3632	-5995.2167	-5997.6677	-5998.4774	-5998.6197	-6000.4032	-6001.9461	-6004.4737	-6005.5898	-6007.1873	-6009.1131	-6007.3843	-6008.6645	-6009.9338	-6011.5423	-6012.7568	-6015.0547	-6016.5100	-6019.2783	-6020.6351	-6021.3135	-6022.8892	-6024.7931	-6025.9748	-6027.5067	-6028.6447	-6031.8398	-6034.0173	-6034.9255	-6036.1947	-6034.4002	-6036.4136	-6038.0549	-6038.1862	-6040.2214	-6042.2457	-6044.4888	-6043.9636	-6043.9964	-6047.1149	-6047.1040	-6049.4456	-6049.8286	-6052.5641	-6056.2953	-6056.5908	-6057.3348	-6060.5846	-6060.0703	-6064.9177	-6069.5790	-6111.0057	-6170.4430	-6168.8564	-6120.1204	-6097.7439	-6075.4330	-6071.7565	-6072.3364	-6072.9929	-6074.9078	-6077.0962	-6077.2603	-6077.1619	-6081.2651	-6083.1362	-6086.0906	-6087.2833	-6088.8261	-6100.0417	-6152.5637	-6213.8502	-6256.4805	-6259.5881	-6261.7108	-6260.3650	-6260.4634	-6262.8816	-6263.3740	-6265.8251	-6265.4968	-6266.1424	-6230.7229	-6107.6027	-6101.9894	-6102.9961	-6106.5194	-6106.0052	-6108.4124	-6110.2397	-6110.1960	-6116.6409	-6154.4457	-6217.2970	-6273.8128	-6288.4095	-6289.4381	-6287.9718	-6289.0113	-6290.4557	-6291.9985	-6292.7973	-6293.3444	-6292.7097	-6296.6598	-6297.5024	-6274.1082	-6143.7115	-6132.6053	-6131.4127	-6135.2424	-6137.4198	-6139.9365	-6139.4551	-6140.1554	-6145.3638	-6179.2295	-6243.4376	-6302.1309
-5972.4462	-5976.7683	-5974.2188	-5975.9368	-5981.1124	-5983.1148	-5983.4868	-5984.8545	-5986.6490	-5989.6472	-5991.6386	-5991.6933	-5993.8380	-5995.7747	-5996.9346	-5997.4160	-5999.2762	-6001.1473	-6000.5455	-6001.6287	-6003.5874	-6004.6269	-6005.3490	-6006.8700	-6008.2377	-6009.7587	-6012.7240	-6013.5009	-6013.0632	-6016.8054	-6019.5847	-6019.2783	-6021.7074	-6022.6266	-6025.6794	-6027.2551	-6028.7541	-6027.5833	-6031.5991	-6031.2927	-6032.6605	-6033.3826	-6034.0173	-6036.7090	-6038.0987	-6040.7138	-6040.2433	-6041.5235	-6043.7229	-6044.0511	-6046.2396	-6048.2638	-6049.0298	-6051.3714	-6052.4875	-6055.8905	-6058.8667	-6064.8958	-6107.9419	-6168.4297	-6221.2580	-6229.5849	-6229.9351	-6230.5259	-6231.1278	-6214.4958	-6102.6897	-6066.6246	-6066.9091	-6069.8963	-6070.2684	-6071.3844	-6071.5595	-6075.0719	-6079.0001	-6080.0725	-6081.6919	-6084.3617	-6102.0770	-6158.8444	-6219.6495	-6254.2593	-6256.3055	-6256.1742	-6256.9729	-6257.7826	-6258.9097	-6260.3650	-6259.7960	-6261.8312	-6263.2537	-6260.4634	-6130.2747	-6097.5907	-6100.1402	-6101.6174	-6102.6788	-6104.8781	-6107.6465	-6107.7450	-6111.0385	-6143.5474	-6205.8953	-6265.9564	-6283.2996	-6283.2558	-6284.2077	-6285.4114	-6287.0308	-6286.2649	-6288.4752	-6289.4490	-6290.8277	-6290.8496	-6291.8891	-6262.0610	-6135.7895	-6129.6838	-6129.3555	-6130.2090	-6133.8199	-6136.4679	-6133.5135	-6136.0630	-6140.8666	-6147.6616	-6189.2634	-6253.2745
-5970.8049	-5972.2383	-5971.6584	-5972.4462	-5976.0899	-5978.6942	-5979.4273	-5982.3816	-5983.5962	-5985.9050	-5987.8198	-5986.8241	-5990.7851	-5992.4702	-5993.8270	-5992.1201	-5991.7809	-5996.8471	-5997.4379	-5996.7048	-5999.9218	-6001.0816	-6000.0640	-6003.2153	-6005.2177	-6006.5527	-6009.4742	-6010.9295	-6005.2506	-6012.4176	-6015.4814	-6016.0723	-6016.8273	-6016.7944	-6020.0005	-6021.0181	-6022.2764	-6023.9396	-6024.9901	-6026.4672	-6027.0581	-6028.4587	-6030.1000	-6031.8289	-6033.3389	-6035.4616	-6037.1795	-6038.0987	-6038.2737	-6038.8865	-6041.6439	-6044.2809	-6042.8475	-6045.5940	-6048.2857	-6051.5465	-6061.6788	-6112.2421	-6173.3208	-6218.4131	-6222.8337	-6223.3151	-6222.5492	-6225.8756	-6226.6087	-6227.0135	-6214.3317	-6093.9798	-6063.2873	-6063.1451	-6064.9177	-6065.6836	-6068.8459	-6069.8744	-6072.9710	-6075.0610	-6077.5448	-6079.5144	-6116.8378	-6178.5730	-6235.0341	-6250.6812	-6250.0138	-6250.5609	-6250.1998	-6252.4320	-6254.6532	-6253.5481	-6255.1347	-6256.3821	-6258.4063	-6258.7784	-6168.8017	-6094.5926	-6094.6254	-6095.4679	-6098.9366	-6101.6064	-6101.5955	-6100.9280	-6104.4076	-6124.9021	-6185.8385	-6249.0728	-6277.2814	-6279.5355	-6280.6735	-6280.8814	-6281.0345	-6282.6759	-6284.0436	-6285.3457	-6285.0393	-6286.6369	-6287.5998	-6195.9599	-6124.8802	-6123.3265	-6123.9173	-6125.9526	-6128.2504	-6129.6838	-6130.2528	-6129.3555	-6136.4132	-6139.0065	-6144.4775	-6192.3381
-5965.1916	-5964.9728	-5968.0147	-5966.3515	-5970.9034	-5972.2930	-5974.4267	-5976.7683	-5977.9829	-5977.3592	-5979.3179	-5980.5105	-5981.2874	-5984.5810	-5987.0320	-5989.9754	-5991.2885	-5991.5183	-5991.0806	-5992.6234	-5995.3480	-5996.8799	-5995.0307	-5993.2471	-5999.2981	-6000.9503	-6002.8542	-6002.8871	-6005.9837	-6008.6098	-6009.3867	-6008.9599	-6011.4000	-6013.0960	-6014.0808	-6016.3021	-6018.5452	-6023.0533	-6029.1590	-6028.5572	-6027.9663	-6025.8764	-6026.4454	-6026.5220	-6028.0867	-6030.4173	-6030.5158	-6031.9930	-6033.7109	-6036.7856	-6037.0482	-6039.2913	-6040.8670	-6044.6530	-6046.8304	-6051.5246	-6094.9756	-6157.4329	-6209.2108	-6217.3517	-6217.9207	-6217.8003	-6218.3912	-6221.2033	-6221.8708	-6222.0787	-6224.0592	-6207.1865	-6079.9083	-6058.1336	-6058.1992	-6061.6241	-6064.5894	-6062.7621	-6068.4410	-6070.9905	-6074.2622	-6076.4944	-6113.7303	-6175.9578	-6232.1891	-6245.4728	-6245.3087	-6247.4752	-6249.1165	-6249.1384	-6249.4557	-6251.2940	-6253.0557	-6253.2854	-6254.3687	-6255.2222	-6213.6204	-6095.9932	-6090.8832	-6089.4498	-6095.0850	-6097.5469	-6098.0940	-6095.0193	-6102.6897	-6112.0124	-6161.2189	-6224.9893	-6271.4055	-6276.0559	-6276.7124	-6276.7015	-6277.9489	-6278.8133	-6280.6735	-6281.7348	-6280.9032	-6283.3433	-6279.2400	-6142.1140	-6119.7593	-6122.0791	-6121.6304	-6124.0268	-6124.6723	-6125.1210	-6127.9659	-6123.9611	-6130.4716	-6134.2795	-6134.9251	-6139.7943
-5961.1868	-5963.1126	-5963.7582	-5964.3163	-5961.3510	-5967.4348	-5970.2578	-5971.7022	-5973.8030	-5974.7659	-5978.7270	-5979.7884	-5982.2832	-5981.1014	-5984.1980	-5985.5767	-5984.3621	-5986.3974	-5988.3232	-5990.7851	-5989.3408	-5992.9626	-5994.8228	-5994.9103	-5995.3370	-5998.2914	-5998.4008	-6000.5017	-6003.1278	-6005.3600	-6004.9004	-6008.4785	-6007.6250	-6011.0717	-6013.4681	-6026.8064	-6084.1976	-6147.6945	-6182.6434	-6183.9674	-6181.5602	-6148.3072	-6068.0033	-6022.5500	-6023.1846	-6024.3882	-6025.8764	-6026.6204	-6029.6295	-6028.4696	-6031.8945	-6034.1267	-6038.1096	-6039.2366	-6041.0749	-6063.4077	-6123.4359	-6184.4270	-6211.0600	-6211.4430	-6213.4891	-6213.9487	-6215.4806	-6216.3560	-6217.8003	-6217.9535	-6218.8617	-6220.6015	-6177.9821	-6061.6022	-6055.9342	-6057.2035	-6057.7178	-6059.7968	-6064.4691	-6067.4234	-6067.2812	-6071.2860	-6109.8130	-6172.7190	-6227.9874	-6240.2863	-6242.3434	-6241.5337	-6243.6564	-6243.7768	-6244.1051	-6246.5998	-6247.2783	-6246.7859	-6248.0333	-6249.9372	-6189.4275	-6087.2723	-6084.7447	-6086.0578	-6091.7258	-6091.4522	-6093.8266	-6090.9926	-6097.2515	-6099.6040	-6128.7866	-6191.5612	-6252.1694	-6270.6615	-6271.3399	-6271.9855	-6273.0906	-6274.1410	-6274.3927	-6274.1957	-6276.9094	-6279.0759	-6226.4883	-6117.8226	-6113.8397	-6117.6038	-6116.9035	-6118.4025	-6120.2517	-6122.5277	-6124.2894	-6123.3483	-6125.9744	-6129.7057	-6131.2813	-6133.4807
-5957.0179	-5958.2325	-5959.3157	-5960.1692	-5958.4185	-5960.1802	-5963.6379	-5966.1217	-5970.7940	-5973.2997	-5974.0875	-5975.5757	-5976.8449	-5976.1009	-5978.0595	-5977.6984	-5979.0771	-5981.1014	-5984.1105	-5984.9530	-5984.9530	-5986.4411	-5989.2095	-5990.9383	-5991.9122	-5991.9122	-5994.9212	-5997.2410	-5998.1054	-6001.1363	-6001.2786	-6004.4737	-6005.5241	-6009.1131	-6040.5278	-6102.8429	-6162.1927	-6175.9141	-6178.2228	-6179.7547	-6180.0611	-6180.8818	-6180.4550	-6104.2435	-6021.5214	-6017.9871	-6018.7968	-6021.3354	-6022.0138	-6023.1080	-6025.5372	-6030.2204	-6031.7085	-6033.4702	-6036.2495	-6073.7260	-6137.0588	-6193.0275	-6205.6327	-6205.1075	-6207.2959	-6208.6746	-6208.4011	-6210.4801	-6212.3512	-6213.2812	-6213.5986	-6211.3117	-6208.9263	-6079.0658	-6050.0802	-6050.2772	-6054.7963	-6056.0546	-6059.1950	-6058.9543	-6062.0618	-6066.4386	-6106.5085	-6169.6114	-6224.5187	-6236.0407	-6236.6535	-6237.0036	-6238.8200	-6239.2687	-6241.1288	-6241.1945	-6242.0151	-6243.9956	-6245.3634	-6246.1840	-6170.6728	-6083.5411	-6082.4797	-6083.3441	-6087.6991	-6087.1301	-6089.2528	-6088.3556	-6091.3537	-6096.2777	-6097.6454	-6130.4060	-6193.9247	-6252.4210	-6267.7837	-6269.1843	-6268.8888	-6269.3922	-6269.3703	-6272.7514	-6273.7800	-6246.0856	-6123.5125	-6111.4543	-6113.2816	-6113.5442	-6114.0148	-6114.5400	-6115.9077	-6118.5229	-6117.7788	-6117.5162	-6120.1095	-6126.2261	-6127.5392	-6128.7866
-5953.7134	-5953.1663	-5953.8557	-5957.6744	-5957.4337	-5954.3152	-5953.8994	-5962.7625	-5967.9600	-5963.8020	-5964.4257	-5966.6141	-5968.4305	-5969.7654	-5971.4833	-5972.4791	-5975.9039	-5976.4839	-5978.1799	-5981.0139	-5982.3269	-5983.6181	-5984.3731	-5984.5810	-5987.0211	-5988.6843	-5990.6538	-5990.9383	-5994.0240	-5997.3394	-5998.2914	-5999.6810	-6003.7077	-6038.2081	-6100.1074	-6158.6912	-6171.8983	-6172.3798	-6173.6490	-6173.6053	-6174.1633	-6176.1110	-6176.9864	-6177.3037	-6094.4503	-6014.7373	-6014.7045	-6018.8187	-6017.7026	-6017.7464	-6022.0576	-6025.7451	-6026.4563	-6028.9511	-6034.9255	-6078.5953	-6142.0046	-6194.0013	-6200.9386	-6202.6346	-6203.8820	-6203.8163	-6204.4400	-6206.8473	-6207.6132	-6208.7403	-6209.7579	-6211.2898	-6212.2855	-6112.9206	-6045.4299	-6046.7648	-6049.9599	-6050.6492	-6055.2121	-6057.0503	-6058.9652	-6061.3287	-6081.6153	-6142.8252	-6204.2431	-6231.7843	-6233.3052	-6233.5569	-6233.8523	-6235.4389	-6236.5769	-6237.3319	-6238.1307	-6239.3015	-6240.8881	-6236.4456	-6115.3169	-6076.3631	-6077.1947	-6078.1029	-6080.8822	-6082.4141	-6086.4298	-6084.3727	-6083.4973	-6089.4717	-6092.5574	-6095.9932	-6132.5287	-6195.6754	-6252.2460	-6264.4573	-6264.8512	-6264.5667	-6264.4464	-6268.1776	-6203.3239	-6104.9328	-6104.0903	-6106.6179	-6106.8805	-6109.3206	-6108.4015	-6111.1151	-6111.2683	-6113.9163	-6112.5485	-6114.4087	-6116.9691	-6119.8688	-6122.4073	-6123.9939
-5945.9445	-5948.8223	-5949.9274	-5952.4113	-5954.8842	-5950.3870	-5951.8204	-5954.0526	-5953.0459	-5956.8100	-5963.1455	-5966.0670	-5969.1308	-5975.7289	-6005.7211	-6045.4080	-6049.4784	-6010.0979	-5983.1913	-5976.9872	-5975.8492	-5978.7379	-5979.2084	-5981.4297	-5983.6400	-5983.1257	-5981.5719	-5983.3227	-5990.5225	-5992.9407	-5994.4070	-5995.0416	-6009.1350	-6063.7578	-6126.2480	-6164.4139	-6167.0729	-6168.4297	-6167.7841	-6169.9725	-6170.7822	-6172.2813	-6173.9664	-6174.4369	-6171.6904	-6057.6412	-6011.8267	-6010.9952	-6013.0194	-6016.5865	-6018.8953	-6020.5257	-6022.1561	-6024.0928	-6034.6300	-6089.3623	-6152.8701	-6194.8657	-6195.4128	-6198.5094	-6198.2140	-6199.1660	-6201.4091	-6202.7987	-6202.7987	-6204.0352	-6203.9148	-6206.7598	-6207.6461	-6118.8293	-6042.2129	-6042.4317	-6045.7800	-6047.0602	-6047.5636	-6052.9689	-6054.7853	-6056.0546	-6066.1541	-6117.9101	-6180.3018	-6225.0987	-6228.2390	-6227.7467	-6230.9855	-6231.5326	-6232.4736	-6232.9879	-6233.4256	-6235.0231	-6235.9860	-6208.2369	-6079.2518	-6074.6124	-6075.0610	-6073.7260	-6078.3545	-6079.5582	-6080.1600	-6078.2342	-6081.3746	-6087.8632	-6089.2966	-6089.3404	-6091.1239	-6098.7177	-6147.7820	-6210.1299	-6257.4763	-6254.6094	-6190.5764	-6119.4858	-6099.1445	-6101.0484	-6103.6307	-6104.3639	-6105.2502	-6106.1255	-6107.1322	-6107.9528	-6106.7273	-6110.2835	-6111.2136	-6109.2768	-6113.0956	-6115.8530	-6118.4025	-6121.1162
-5943.2528	-5944.5330	-5947.5640	-5948.5378	-5946.9074	-5948.0235	-5948.2861	-5953.4399	-5956.6240	-5957.9699	-5961.4713	-5972.7636	-6025.4715	-6087.2286	-6128.8741	-6131.3798	-6133.5026	-6134.2466	-6134.3561	-6071.0234	-5979.2084	-5969.7217	-5974.1970	-5976.3088	-5976.1118	-5977.4905	-5979.3835	-5981.0686	-5986.4521	-5987.9074	-5987.4478	-5989.6581	-6020.4382	-6080.7946	-6140.6915	-6161.5252	-6162.4881	-6161.9191	-6163.2541	-6164.7094	-6165.8802	-6167.2808	-6168.2984	-6169.4035	-6170.9792	-6141.3371	-6013.6431	-6007.2748	-6009.2007	-6009.0365	-6011.0280	-6014.7045	-6017.8121	-6019.6503	-6025.6575	-6075.2908	-6139.5536	-6187.9503	-6193.4214	-6191.5503	-6192.0208	-6195.5441	-6196.0475	-6197.5356	-6198.7611	-6198.6407	-6200.6431	-6201.8905	-6201.3872	-6108.5000	-6039.5102	-6038.2190	-6038.5911	-6043.5588	-6045.2876	-6047.4213	-6047.7824	-6050.2225	-6051.4918	-6075.1704	-6136.1943	-6197.0979	-6224.4640	-6224.7266	-6225.4707	-6225.6567	-6227.5497	-6228.6111	-6229.3661	-6229.6506	-6214.2332	-6083.5192	-6067.2812	-6068.0909	-6069.2289	-6067.9049	-6072.5443	-6073.6276	-6075.0063	-6075.5315	-6076.5163	-6078.7813	-6082.4469	-6083.7928	-6087.1739	-6087.5897	-6088.5088	-6090.0954	-6091.5288	-6092.6121	-6094.5707	-6094.9865	-6095.6868	-6097.9627	-6097.7548	-6099.6478	-6103.0946	-6100.0746	-6103.0836	-6101.8472	-6103.6745	-6106.9024	-6104.0465	-6106.7492	-6108.3577	-6105.2173	-6110.8416	-6113.6537
-5938.6133	-5939.0948	-5940.0030	-5943.1105	-5944.5987	-5940.9987	-5943.3184	-5949.7195	-5952.1596	-5954.8076	-5973.3544	-6031.6976	-6094.1768	-6123.9720	-6126.3136	-6125.4383	-6126.7732	-6128.6443	-6131.1282	-6131.3470	-6101.1141	-5979.7446	-5967.1722	-5970.1156	-5970.3235	-5972.8730	-5974.4486	-5977.7203	-5981.0686	-5980.7075	-5984.2856	-5988.8046	-6032.2994	-6093.3780	-6146.9942	-6156.6779	-6157.3782	-6157.4329	-6157.5861	-6160.1794	-6161.1751	-6162.0942	-6162.5538	-6165.5957	-6167.1604	-6157.1593	-6023.4363	-6001.5740	-6003.6530	-6006.9028	-6005.7430	-6010.9295	-6012.0128	-6014.0480	-6019.6284	-6065.7712	-6130.2419	-6181.0349	-6187.1516	-6187.5345	-6188.9789	-6189.9965	-6190.1278	-6191.0469	-6194.7454	-6194.6141	-6195.1502	-6195.7083	-6191.2001	-6061.2849	-6033.7218	-6032.8355	-6035.8774	-6038.2628	-6039.3023	-6042.2129	-6045.2438	-6047.2462	-6047.4760	-6047.2025	-6072.2051	-6131.9488	-6192.5132	-6220.6452	-6221.9583	-6222.8446	-6223.5011	-6223.8075	-6225.0440	-6218.1942	-6092.1525	-6062.9372	-6063.8782	-6064.8739	-6064.2502	-6067.7626	-6066.8873	-6068.8459	-6070.4872	-6072.4458	-6073.0695	-6073.1789	-6079.4597	-6080.5101	-6083.5301	-6082.6767	-6084.6462	-6086.8784	-6088.3447	-6087.9398	-6090.0844	-6091.7805	-6092.9513	-6094.8771	-6095.1616	-6096.0260	-6097.8095	-6097.1640	-6096.6169	-6099.1554	-6101.1031	-6099.7463	-6099.3086	-6102.2083	-6101.7706	-6105.8410	-6106.8477	-6109.1127
-5936.2827	-5935.8669	-5936.4796	-5938.5367	-5940.3094	-5936.9611	-5942.9683	-5946.6229	-5948.2861	-5960.5084	-6015.8972	-6080.2585	-6117.9867	-6119.7265	-6119.8797	-6120.8098	-6123.3483	-6124.1690	-6124.7489	-6126.4450	-6128.3051	-6095.9385	-5972.5994	-5963.8895	-5965.7716	-5968.9995	-5968.3977	-5971.1988	-5973.9562	-5976.8559	-5978.9896	-5988.5748	-6038.0549	-6098.9694	-6145.9875	-6150.6816	-6151.0865	-6152.5199	-6152.2573	-6153.7782	-6153.7892	-6157.2031	-6159.3368	-6160.2012	-6160.9781	-6160.8140	-6043.3290	-5998.4118	-5998.6853	-6002.8105	-6004.1016	-6006.7168	-6008.3472	-6009.4523	-6011.5423	-6036.6871	-6099.0788	-6160.9891	-6183.3766	-6181.7681	-6183.7048	-6186.1777	-6186.4950	-6187.7862	-6190.2482	-6190.4889	-6190.3685	-6191.5722	-6153.5485	-6032.1899	-6030.0562	-6031.8617	-6031.5225	-6033.9626	-6035.6258	-6037.8798	-6040.6810	-6043.0117	-6044.5107	-6037.9455	-6047.5198	-6063.4952	-6118.3150	-6179.6344	-6217.7565	-6219.3979	-6220.5468	-6213.3907	-6116.3892	-6061.2740	-6058.1774	-6059.3044	-6061.5038	-6062.2150	-6062.0180	-6062.9809	-6063.1560	-6064.2393	-6067.2702	-6064.2174	-6066.3730	-6071.7674	-6073.8245	-6075.5753	-6076.4287	-6078.3545	-6081.5059	-6081.1448	-6082.3156	-6083.0596	-6084.9854	-6087.4583	-6086.9441	-6088.6510	-6090.2923	-6090.7957	-6091.5288	-6092.1963	-6094.0564	-6095.5993	-6095.9822	-6096.4199	-6097.6673	-6098.8162	-6099.3086	-6100.4575	-6102.2083	-6104.1231
-5928.9734	-5931.7964	-5931.6542	-5933.7769	-5933.4049	-5932.3982	-5939.2152	-5942.0929	-5944.3798	-5975.9586	-6039.8385	-6099.6697	-6114.1351	-6114.2993	-6115.8530	-6116.0719	-6118.1071	-6120.0767	-6120.6894	-6121.4882	-6124.1033	-6123.8626	-6031.3802	-5961.3400	-5961.9747	-5962.4233	-5965.9576	-5966.4171	-5972.0523	-5973.1028	-5974.9848	-5986.4849	-6039.9041	-6100.9280	-6143.5365	-6146.4799	-6148.1978	-6149.4999	-6149.9485	-6150.4628	-6150.6707	-6152.8263	-6153.8111	-6155.6056	-6156.7764	-6158.6803	-6049.4237	-5993.2909	-5993.8052	-5996.2562	-5998.3789	-5999.2871	-6002.9637	-6005.1849	-6006.5855	-6011.1593	-6056.4376	-6120.8317	-6171.9421	-6178.1462	-6179.2076	-6180.5207	-6182.2714	-6182.9936	-6183.8471	-6185.1601	-6186.7139	-6186.5498	-6063.4405	-6023.8630	-6025.6794	-6025.4387	-6027.3645	-6027.1238	-6030.1766	-6032.7480	-6034.5425	-6037.2452	-6038.8974	-6037.1248	-6041.6439	-6042.9460	-6044.8390	-6047.7496	-6063.1122	-6086.7362	-6054.1616	-6051.9623	-6054.5993	-6054.0631	-6054.8838	-6056.2844	-6058.6479	-6058.9214	-6058.9761	-6060.4205	-6059.5561	-6062.6527	-6059.5998	-6064.4034	-6065.2897	-6059.7749	-6068.8897	-6070.0167	-6074.4482	-6076.1005	-6077.3807	-6079.1095	-6079.2409	-6080.4007	-6081.4730	-6079.6567	-6080.1600	-6084.0007	-6084.6134	-6085.5216	-6086.4845	-6090.2376	-6089.4826	-6088.6839	-6090.9817	-6092.9403	-6093.1045	-6094.2971	-6096.0260	-6094.2862	-6098.2144	-6099.2211
-5925.7564	-5927.9120	-5928.5904	-5929.0062	-5927.3430	-5930.5053	-5935.9763	-5937.7161	-5942.9902	-5990.2818	-6054.7416	-6103.9809	-6108.1936	-6108.8282	-6110.5571	-6110.6884	-6112.5704	-6114.4853	-6116.6409	-6117.7241	-6118.1509	-6117.7241	-6090.4893	-5964.5242	-5955.6720	-5956.0331	-5960.3771	-5960.5303	-5965.6840	-5967.1393	-5969.9952	-5978.7379	-6031.8398	-6092.9513	-6137.5949	-6141.7091	-6143.4489	-6144.5213	-6144.5322	-6145.6373	-6148.1103	-6148.1212	-6149.2373	-6150.4956	-6153.8001	-6146.1954	-6012.1222	-5990.3475	-5989.7238	-5991.5730	-5995.4246	-5996.7923	-5999.9108	-6002.1102	-6001.8585	-6004.6487	-6014.7811	-6071.6142	-6135.0782	-6174.8199	-6176.8770	-6178.9669	-6179.5687	-6179.6781	-6180.4550	-6182.9389	-6183.3766	-6111.5418	-6019.6066	-6021.4777	-6022.9220	-6023.1846	-6024.0928	-6026.8283	-6029.0605	-6030.0781	-6032.3869	-6034.2799	-6036.3042	-6033.2842	-6034.1814	-6039.3461	-6041.7314	-6043.5478	-6044.0621	-6044.2919	-6046.6007	-6049.9052	-6049.7082	-6050.0802	-6053.1221	-6053.3081	-6053.6802	-6055.1464	-6055.5732	-6054.9495	-6055.5513	-6056.6564	-6058.0242	-6060.4971	-6062.0618	-6062.2369	-6063.0028	-6065.3007	-6066.6465	-6069.8526	-6069.6884	-6070.5528	-6074.8312	-6074.7218	-6077.5448	-6078.3655	-6079.3065	-6077.6105	-6080.1381	-6082.9830	-6083.2566	-6084.3508	-6082.5563	-6085.1277	-6083.3113	-6086.7362	-6088.7167	-6088.7276	-6089.8765	-6094.2534	-6095.2491	-6095.5117
-5921.7188	-5924.0057	-5924.5747	-5924.9795	-5924.8810	-5928.3059	-5931.2274	-5932.1028	-5943.7452	-5996.1249	-6060.5737	-6102.2083	-6104.7796	-6105.7207	-6107.0884	-6106.9024	-6109.5285	-6110.9291	-6112.6032	-6113.0300	-6114.6385	-6115.8530	-6097.1530	-5961.5808	-5949.8727	-5953.8775	-5957.5212	-5956.5255	-5959.5784	-5962.4233	-5965.1041	-5970.1703	-6013.1289	-6074.4373	-6128.3379	-6138.9408	-6138.2405	-6139.3238	-6141.1620	-6141.7748	-6142.5407	-6142.9347	-6144.4884	-6146.3267	-6147.4100	-6100.5998	-5986.7913	-5985.1828	-5984.5372	-5986.3645	-5991.1462	-5991.6605	-5994.6149	-5996.1139	-5996.7814	-5999.8780	-6002.4494	-6014.2340	-6070.9686	-6133.2947	-6172.0843	-6173.9445	-6174.0758	-6174.2509	-6177.3694	-6163.8450	-6039.8275	-6014.4091	-6016.4005	-6018.0856	-6017.9324	-6018.3154	-6020.2740	-6020.5804	-6022.6594	-6024.7712	-6024.4539	-6028.6994	-6030.6252	-6033.2076	-6024.6399	-6033.3607	-6036.4355	-6037.3874	-6037.7157	-6039.1382	-6042.0816	-6043.3618	-6044.0074	-6045.9004	-6047.5417	-6047.6730	-6049.2049	-6047.1587	-6048.4827	-6050.2772	-6050.9556	-6051.9842	-6052.9252	-6054.4352	-6055.5403	-6057.7725	-6059.1074	-6059.8734	-6062.2588	-6063.2873	-6063.8016	-6067.8283	-6069.3492	-6070.0495	-6072.3473	-6074.7108	-6071.2750	-6074.4263	-6077.0634	-6076.6257	-6077.1837	-6078.5624	-6078.4640	-6081.2761	-6083.3222	-6081.8232	-6084.3289	-6087.2614	-6089.0997	-6090.3142	-6090.5768	-6092.4917
-5915.8210	-5916.6417	-5920.0228	-5921.3577	-5917.4076	-5922.7255	-5925.0123	-5927.8245	-5947.4545	-6006.8153	-6070.5966	-6099.1883	-6100.0964	-6101.2782	-6102.3615	-6102.6897	-6104.3529	-6106.9352	-6107.6465	-6106.5194	-6109.2112	-6110.9838	-6106.3225	-5980.7731	-5947.3013	-5948.8661	-5952.3785	-5950.2448	-5955.4313	-5957.0070	-5959.9832	-5961.5698	-5983.5196	-6043.0882	-6104.2544	-6132.5178	-6134.0387	-6134.9469	-6136.7414	-6137.0369	-6137.5949	-6138.5141	-6140.6368	-6142.9018	-6143.1207	-6051.4261	-5980.3792	-5979.9963	-5981.1671	-5980.4230	-5984.8874	-5987.6557	-5989.0891	-5991.6715	-5993.0392	-5996.4313	-5996.7705	-5997.9194	-6001.3114	-6025.1104	-6084.1538	-6144.4556	-6171.1214	-6168.9221	-6068.9881	-6006.6840	-6010.1526	-6011.6517	-6013.0851	-6014.9671	-6015.6127	-6015.5361	-6016.7616	-6015.9519	-6018.3373	-6021.3792	-6020.9853	-6023.9943	-6027.0143	-6028.0538	-6029.5748	-6027.1675	-6032.0258	-6032.8902	-6035.6039	-6037.0920	-6038.8099	-6038.7114	-6041.1734	-6039.9369	-6041.8409	-6042.6834	-6043.9746	-6045.5721	-6046.1630	-6047.1368	-6046.8961	-6048.4717	-6049.6425	-6049.2377	-6052.8595	-6055.3105	-6055.3871	-6057.9148	-6057.8272	-6060.0594	-6060.4971	-6061.1974	-6061.9196	-6061.9961	-6066.5262	-6067.3031	-6066.2198	-6067.3359	-6069.0100	-6069.5352	-6070.8592	-6073.2227	-6075.6847	-6078.7485	-6079.0330	-6077.8403	-6077.9169	-6081.4183	-6081.8670	-6085.1933	-6086.3094	-6087.9289
-5914.4861	-5913.5779	-5915.9851	-5916.4556	-5914.2235	-5918.2501	-5922.0033	-5924.2902	-5940.1234	-5995.7310	-6060.3767	-6095.9166	-6095.7415	-6096.0807	-6097.8424	-6098.6193	-6100.4138	-6101.9785	-6102.6788	-6104.7031	-6106.0599	-6106.4428	-6100.8186	-5972.0304	-5943.7889	-5943.2418	-5946.5354	-5948.1001	-5952.7286	-5954.7857	-5955.3109	-5958.0574	-5967.3582	-6017.3087	-6078.9235	-6126.3684	-6131.4892	-6132.8132	-6132.7148	-6133.2509	-6134.5968	-6135.2096	-6137.0588	-6138.5688	-6094.9427	-5977.7969	-5976.6808	-5979.2084	-5977.1623	-5980.1494	-5981.5829	-5983.9792	-5983.6728	-5987.7214	-5990.4241	-5991.4636	-5993.6848	-5994.6149	-5996.2015	-5998.4555	-5998.2476	-5998.9589	-6000.7971	-6001.5303	-6001.4427	-6004.6816	-6006.6183	-6008.4347	-6009.8134	-6010.7544	-6012.3191	-6011.2687	-6012.3629	-6012.9757	-6014.2668	-6017.2212	-6019.1579	-6019.8254	-6019.6941	-6021.4011	-6023.1846	-6019.7707	-6027.2222	-6028.2180	-6030.5815	-6029.3341	-6026.2922	-6030.4173	-6034.3565	-6035.6695	-6038.0002	-6038.9084	-6039.3789	-6039.5649	-6041.0530	-6042.3223	-6043.4822	-6043.9964	-6044.8280	-6047.3885	-6047.9356	-6048.1216	-6049.2486	-6051.5465	-6053.4066	-6053.4285	-6056.2078	-6055.5841	-6056.6236	-6057.4224	-6060.4752	-6061.8977	-6063.9548	-6066.0557	-6068.8787	-6068.8240	-6070.1699	-6069.4696	-6072.3911	-6072.3145	-6073.3103	-6075.4549	-6076.3959	-6076.4287	-6078.9892	-6081.0791	-6084.2851	-6083.8584
-5917.8891	-5907.7676	-5911.3238	-5912.3086	-5908.0084	-5914.3438	-5918.0532	-5917.4842	-5931.1399	-5986.0253	-6050.9556	-6089.5592	-6091.7695	-6091.7039	-6094.4066	-6094.6692	-6094.7458	-6096.0698	-6098.4989	-6100.5560	-6101.2891	-6101.8581	-6073.6604	-5947.7062	-5938.7775	-5939.7404	-5943.5263	-5945.0473	-5946.8418	-5948.8879	-5952.0612	-5953.9104	-5955.4641	-5962.8391	-6011.1593	-6073.5729	-6122.9654	-6126.2152	-6127.9878	-6129.4540	-6129.4103	-6131.9816	-6131.5768	-6096.9561	-5976.2212	-5969.3059	-5971.3848	-5974.0000	-5973.4748	-5975.2474	-5976.9762	-5979.4492	-5980.5543	-5982.1847	-5985.5548	-5987.3056	-5989.5268	-5989.7456	-5991.5839	-5992.6781	-5994.2210	-5996.0373	-5996.7705	-5997.3613	-5999.8889	-6001.7929	-6002.4166	-6003.9922	-6006.1697	-6005.5460	-6005.8524	-6006.0056	-6007.6688	-6010.0651	-6011.9471	-6012.9866	-6014.2449	-6016.4990	-6018.5452	-6019.8473	-6020.0442	-6021.5214	-6018.3154	-6023.5129	-6025.2308	-6028.7322	-6030.5158	-6032.0477	-6032.2228	-6033.5358	-6033.5577	-6034.1267	-6035.0349	-6036.1947	-6035.2428	-6038.5145	-6039.1710	-6037.0592	-6040.3856	-6042.5193	-6044.0402	-6045.9332	-6045.7253	-6047.8699	-6049.7191	-6050.8243	-6051.4370	-6053.1768	-6058.1117	-6064.5347	-6107.1650	-6169.5786	-6221.8051	-6218.3802	-6176.9864	-6089.0449	-6065.9681	-6066.0119	-6067.7845	-6068.0799	-6069.8307	-6067.7517	-6071.7455	-6072.9710	-6074.1966	-6076.1442	-6077.5995	-6078.9564
-5931.0305	-5904.4084	-5905.0212	-5907.0783	-5903.7519	-5908.7524	-5911.9147	-5913.5888	-5919.0599	-5964.5132	-6029.3669	-6080.8822	-6087.5897	-6088.8152	-6089.5045	-6090.2267	-6090.7629	-6093.9251	-6095.8509	-6096.1682	-6097.5251	-6099.6150	-6018.5561	-5936.0748	-5935.6918	-5937.0267	-5937.8583	-5941.1519	-5942.2680	-5945.9883	-5947.9032	-5946.7761	-5948.9208	-5950.2119	-5956.6349	-5997.4707	-6060.3330	-6115.4044	-6126.8060	-6125.8541	-6127.0468	-6115.8202	-5999.3856	-5964.6117	-5965.4433	-5966.7345	-5968.3101	-5970.4876	-5969.8858	-5972.5775	-5972.1508	-5975.7726	-5976.6918	-5975.6085	-5980.4777	-5983.8260	-5984.9093	-5986.5943	-5987.6229	-5989.1657	-5990.2380	-5990.9055	-5992.0544	-5993.0830	-5997.0440	-5997.0221	-5997.1097	-5998.7400	-6000.6549	-6000.6440	-6000.6658	-6002.3071	-6005.0755	-6006.1806	-6006.7606	-6007.0560	-6009.4414	-6011.7392	-6012.9428	-6013.7416	-6016.4115	-6018.6765	-6013.2054	-6018.0637	-6023.0095	-6025.1214	-6026.0405	-6024.6399	-6026.9159	-6026.2046	-6029.2575	-6030.6471	-6028.7432	-6028.9839	-6030.8441	-6033.2951	-6036.0634	-6034.5753	-6036.5449	-6040.3090	-6038.2519	-6040.8123	-6042.9898	-6044.9593	-6044.8280	-6047.1806	-6050.4851	-6058.1555	-6102.8976	-6165.5957	-6217.0015	-6223.7856	-6223.1729	-6223.8732	-6224.0592	-6224.1686	-6161.3173	-6073.1352	-6058.7026	-6062.2806	-6064.2940	-6065.2788	-6064.6222	-6066.2088	-6067.9705	-6070.0276	-6071.1109	-6073.5838
-5919.5632	-5898.7623	-5900.8741	-5904.2771	-5900.4365	-5904.9446	-5908.6430	-5910.4703	-5910.7001	-5928.2184	-5986.9007	-6052.3890	-6083.4754	-6083.8365	-6084.9964	-6086.3970	-6087.2395	-6088.8261	-6090.2814	-6091.1458	-6093.0169	-6065.7165	-5937.7927	-5926.3582	-5927.3977	-5931.2165	-5932.1028	-5934.6304	-5936.1076	-5938.0991	-5941.0315	-5942.8370	-5944.4564	-5946.8965	-5946.1524	-5947.7281	-5951.0982	-5988.1481	-6020.4819	-6010.9295	-5974.9957	-5960.2349	-5960.1583	-5962.0731	-5963.7254	-5964.3491	-5966.8548	-5965.3995	-5968.0913	-5966.4609	-5967.3363	-5971.8882	-5971.3739	-5974.7003	-5974.0438	-5979.2303	-5979.5914	-5981.0905	-5984.2308	-5984.7779	-5986.0910	-5986.1785	-5989.4064	-5991.3760	-5991.0149	-5987.6667	-5992.5140	-5994.8228	-5995.0526	-5994.9978	-5997.6568	-5999.1777	-5999.7139	-6001.6178	-6002.4166	-6004.5393	-6006.9904	-6008.0846	-6007.7563	-6008.1502	-6011.0499	-6014.0918	-6013.9386	-6008.8396	-6016.6084	-6019.0923	-6018.4139	-6019.6175	-6011.2359	-6008.9380	-6016.1051	-6022.2436	-6022.1123	-6024.9353	-6026.7846	-6029.1809	-6031.2270	-6033.4264	-6035.2756	-6034.2580	-6035.6695	-6037.6172	-6039.6415	-6039.9041	-6042.2348	-6041.5235	-6048.8438	-6090.8176	-6153.6907	-6208.5543	-6218.4568	-6217.7456	-6218.2708	-6219.6167	-6220.3170	-6220.9297	-6222.0349	-6198.7611	-6076.4069	-6057.1160	-6059.0199	-6060.2673	-6062.5761	-6062.5651	-6065.1693	-6065.9572	-6066.3839	-6068.1018
-5907.4941	-5895.6219	-5896.5301	-5898.5982	-5895.8955	-5899.9331	-5904.6382	-5904.7805	-5906.4874	-5909.6278	-5934.5538	-5996.8471	-6059.6327	-6079.2409	-6081.0354	-6082.4688	-6082.7423	-6085.1605	-6086.8675	-6088.5307	-6083.9459	-5968.2007	-5923.4039	-5925.1984	-5928.6998	-5927.3540	-5929.4439	-5931.0305	-5932.7265	-5934.5976	-5939.1823	-5939.2480	-5941.5349	-5942.4431	-5944.2704	-5946.5245	-5945.7913	-5949.1834	-5948.0673	-5950.9122	-5952.2472	-5955.7267	-5958.0465	-5958.6920	-5959.6549	-5962.3576	-5963.5832	-5962.9376	-5965.2135	-5964.6336	-5967.0299	-5967.1174	-5969.4153	-5972.0085	-5972.9277	-5973.8906	-5976.2322	-5978.0486	-5979.8212	-5980.4777	-5979.9415	-5981.5282	-5984.4169	-5986.3098	-5987.7432	-5989.3408	-5991.3322	-5990.7414	-5992.0216	-5993.0502	-5994.3632	-5997.1315	-5997.5583	-5995.7091	-5997.6239	-6000.0531	-6001.3771	-5999.6920	-6005.4803	-6007.4718	-6009.0037	-6009.1788	-6010.6669	-6011.1374	-6003.3357	-6003.6202	-6016.2145	-6022.9330	-6035.7352	-6041.7424	-6033.6234	-6028.6119	-6025.9201	-6026.4672	-6026.0077	-6027.5396	-6029.3559	-6027.2988	-6028.5681	-6029.5857	-6032.2337	-6034.2142	-6034.1595	-6038.1643	-6039.7290	-6042.9022	-6067.7626	-6127.3094	-6188.8914	-6212.7670	-6212.7560	-6212.4059	-6213.1390	-6215.4587	-6216.3122	-6216.7718	-6218.0848	-6218.8836	-6178.2775	-6057.8491	-6052.7501	-6055.8139	-6057.3567	-6056.3719	-6059.1731	-6061.0223	-6063.8672	-6066.8982
-5897.1101	-5892.5582	-5894.3308	-5896.4535	-5894.6481	-5894.6262	-5900.6881	-5901.7167	-5903.1391	-5906.0716	-5908.1944	-5931.7855	-5993.3456	-6055.6935	-6078.3655	-6079.0658	-6079.7332	-6081.0244	-6082.7642	-6062.9809	-5938.8869	-5918.3924	-5919.8367	-5922.0689	-5923.5571	-5922.7364	-5927.1679	-5925.7564	-5929.0390	-5930.8773	-5930.8664	-5934.4882	-5936.7204	-5936.9720	-5939.0182	-5941.2942	-5942.5634	-5942.4102	-5943.8327	-5947.9250	-5946.5901	-5951.7767	-5953.3742	-5955.2234	-5956.5474	-5956.3286	-5955.7486	-5958.4185	-5959.3376	-5959.3486	-5961.7339	-5962.8281	-5964.6555	-5966.3187	-5964.9290	-5969.6122	-5971.8444	-5973.9015	-5971.9429	-5974.9957	-5979.3179	-5980.5434	-5981.4297	-5982.7537	-5984.6466	-5982.8521	-5983.9026	-5984.5263	-5987.3056	-5988.7390	-5991.1572	-5990.5554	-5992.1420	-5995.0744	-5994.2428	-5995.7200	-5995.0416	-5998.6087	-6000.9394	-6001.9242	-6002.9199	-6003.7843	-6006.4980	-6001.1911	-6004.8238	-6026.5329	-6080.1928	-6143.4270	-6180.6301	-6181.7024	-6181.6696	-6181.3742	-6131.3032	-6037.6282	-6018.3592	-6021.7293	-6021.8059	-6020.3069	-6023.2940	-6025.4168	-6026.4235	-6026.0405	-6029.7499	-6032.3978	-6032.6823	-6040.3527	-6086.3751	-6148.9090	-6200.6541	-6206.5300	-6207.8868	-6209.1014	-6208.9044	-6209.9767	-6209.4077	-6212.5372	-6213.5438	-6213.2375	-6207.2740	-6092.2947	-6049.3909	-6051.5246	-6051.3386	-6047.7605	-6055.3871	-6057.8600	-6057.3239	-6060.8363
-5886.5947	-5889.3740	-5889.6804	-5891.4968	-5892.9193	-5889.5272	-5894.7794	-5898.5325	-5899.8565	-5901.7386	-5902.2310	-5904.6710	-5919.4209	-5978.8911	-6041.6877	-6074.8640	-6075.9035	-6071.9534	-5950.2776	-5913.1840	-5915.5584	-5914.3329	-5918.3815	-5919.9243	-5920.5370	-5920.0118	-5922.7473	-5921.3905	-5925.5376	-5926.6537	-5928.8530	-5931.6323	-5931.8511	-5934.8712	-5936.6328	-5936.5672	-5936.2389	-5939.2042	-5941.3489	-5942.8479	-5944.0953	-5947.6296	-5950.3104	-5949.9712	-5949.2928	-5948.5159	-5952.0393	-5954.2605	-5954.0745	-5955.9675	-5957.1820	-5958.7139	-5961.6792	-5962.4233	-5964.2834	-5966.2311	-5967.0190	-5966.8001	-5971.2864	-5974.0547	-5975.3021	-5975.2583	-5973.4201	-5976.9215	-5977.6656	-5976.6152	-5979.8540	-5981.9439	-5984.5263	-5986.0363	-5985.7408	-5988.0168	-5987.8855	-5990.7523	-5989.7894	-5992.5249	-5994.4507	-5996.8142	-5997.2847	-5998.6525	-6000.0750	-6003.9266	-6005.8086	-6007.0232	-6021.7950	-6080.1819	-6142.4641	-6175.3888	-6177.2818	-6177.4788	-6178.0040	-6178.2775	-6179.7547	-6160.7921	-6046.3380	-6014.9671	-6012.3848	-6017.7574	-6020.0224	-6020.6242	-6017.7245	-6022.6266	-6026.4125	-6026.8502	-6028.9730	-6048.8438	-6107.8653	-6170.3336	-6201.3763	-6202.5799	-6203.5318	-6203.7835	-6204.7136	-6205.5452	-6206.8911	-6208.7731	-6209.1670	-6208.9591	-6208.6090	-6144.4994	-6046.4256	-6044.9265	-6047.4870	-6049.6207	-6053.0236	-6051.1526	-6051.8419	-6055.9124
-5882.3820	-5885.3036	-5887.5029	-5889.2208	-5887.8202	-5888.5862	-5891.9673	-5895.1733	-5896.7490	-5898.3028	-5898.3356	-5901.6510	-5904.0364	-5904.6601	-5906.8923	-5908.3585	-5909.8029	-5910.3828	-5911.6083	-5913.2168	-5915.0222	-5913.3809	-5914.2016	-5916.8605	-5917.6702	-5919.0599	-5916.7620	-5918.3815	-5922.3644	-5925.4938	-5924.8810	-5927.5837	-5926.3254	-5932.3654	-5930.8664	-5932.5405	-5936.7532	-5937.4754	-5937.1033	-5939.7951	-5937.1143	-5936.5781	-5942.6619	-5947.0716	-5947.9032	-5948.4831	-5948.6801	-5950.9888	-5950.8466	-5951.2296	-5956.0331	-5957.3899	-5956.8210	-5959.2720	-5959.6549	-5961.7121	-5963.1674	-5965.2026	-5967.1503	-5968.9229	-5968.1351	-5968.3539	-5971.3848	-5972.8292	-5973.6827	-5975.9805	-5976.8559	-5979.2194	-5978.7926	-5980.3136	-5983.1038	-5983.9026	-5985.2922	-5985.4892	-5987.2399	-5988.8375	-5989.1438	-5992.5578	-5994.3413	-5995.2057	-6000.0640	-5998.6744	-6002.2196	-6026.8940	-6086.0031	-6147.1036	-6170.8479	-6171.6685	-6172.5220	-6171.5372	-6172.9816	-6174.1962	-6175.7828	-6176.8223	-6169.6771	-6044.9593	-6012.1331	-6014.4200	-6015.1203	-6016.1926	-6017.8777	-6021.6746	-6020.3397	-6020.8758	-6023.4363	-6053.1768	-6114.0804	-6175.0825	-6197.8201	-6197.9514	-6198.4985	-6199.4395	-6199.7897	-6200.3915	-6202.6346	-6203.5975	-6204.5713	-6205.3373	-6208.1166	-6183.0155	-6050.0583	-6040.3199	-6044.7077	-6046.2396	-6046.4037	-6049.0845	-6048.0231	-6051.3714
-5880.5219	-5882.3054	-5884.7455	-5885.1723	-5885.3583	-5885.2707	-5885.7194	-5888.1047	-5892.0329	-5893.0396	-5896.1143	-5898.3575	-5898.8827	-5900.4912	-5903.4893	-5904.6054	-5905.6339	-5905.7871	-5908.0412	-5910.3281	-5910.1640	-5909.9670	-5912.0351	-5913.6545	-5914.2891	-5913.7748	-5913.9609	-5916.7292	-5919.5523	-5918.5128	-5919.8805	-5922.6051	-5926.3910	-5925.6470	-5927.7916	-5928.4044	-5930.1004	-5932.6171	-5933.0985	-5937.0267	-5939.5325	-5939.9155	-5941.8631	-5944.0187	-5944.6971	-5945.6819	-5946.7542	-5946.5901	-5947.0169	-5950.5183	-5951.5797	-5949.7961	-5953.6478	-5954.5122	-5954.5450	-5957.5650	-5960.4209	-5962.2482	-5963.3534	-5963.5503	-5966.0123	-5966.8111	-5971.4396	-5983.5524	-6036.5230	-6092.7434	-6107.5918	-6098.9366	-6010.0979	-5981.0358	-5978.1361	-5979.4820	-5977.9720	-5981.7798	-5982.8631	-5983.7384	-5984.2418	-5987.2727	-5990.2490	-5992.3499	-5994.7352	-5995.1839	-6007.6140	-6062.5214	-6123.7204	-6164.2170	-6166.2084	-6167.0619	-6167.7732	-6167.4230	-6168.4844	-6170.3664	-6168.9987	-6171.0448	-6172.1500	-6129.6838	-6012.7459	-6008.3362	-6010.1854	-6011.6517	-6013.6760	-6014.7155	-6017.0023	-6015.6127	-6019.6613	-6053.5051	-6115.6998	-6175.7280	-6193.6840	-6194.5703	-6193.8809	-6193.5855	-6196.1022	-6198.1046	-6198.3562	-6199.4067	-6200.3039	-6201.6170	-6203.1598	-6170.6400	-6050.6055	-6039.4555	-6038.1534	-6041.4579	-6044.1606	-6047.1696	-6044.4451	-6045.8894
-5876.5171	-5878.9462	-5879.3730	-5879.5371	-5881.4629	-5883.4762	-5880.7736	-5880.6094	-5888.1595	-5890.8403	-5892.7551	-5894.0682	-5895.7423	-5897.7775	-5899.3422	-5898.8827	-5900.2833	-5902.1762	-5903.7081	-5904.0255	-5905.7215	-5905.2291	-5906.6078	-5907.4503	-5908.8619	-5910.3828	-5913.6107	-5913.0636	-5913.4028	-5915.8867	-5917.7030	-5919.0708	-5920.0228	-5917.2435	-5923.4476	-5925.6689	-5926.6537	-5927.7588	-5930.2536	-5931.6542	-5933.0876	-5934.6742	-5934.4444	-5939.3465	-5939.8607	-5936.1733	-5940.6486	-5939.1057	-5942.7276	-5945.4084	-5946.9074	-5946.1962	-5947.6515	-5950.8466	-5951.3827	-5954.6435	-5954.9499	-5957.8604	-5960.2677	-5962.4014	-5964.0208	-5976.6042	-6029.0715	-6090.1720	-6131.3908	-6134.9360	-6134.1591	-6134.3342	-6137.8685	-6121.1380	-6013.1507	-5971.6803	-5975.7726	-5977.4358	-5978.0267	-5979.4820	-5980.0072	-5982.0205	-5985.0077	-5987.1086	-5987.4369	-5991.1353	-6016.4005	-6075.9363	-6136.2709	-6160.3654	-6161.2079	-6162.2693	-6161.7441	-6163.0571	-6164.4358	-6164.9829	-6166.1318	-6166.7446	-6168.6704	-6163.8231	-6031.0191	-6003.9485	-6005.9509	-6009.7040	-6009.1569	-6010.2292	-6010.7763	-6014.0370	-6017.9653	-6052.0826	-6114.9667	-6173.7038	-6188.2458	-6189.4166	-6189.3947	-6191.3424	-6193.2244	-6192.5460	-6193.4651	-6195.0189	-6195.2596	-6196.6602	-6196.9228	-6161.6018	-6040.7576	-6034.3784	-6034.7613	-6038.7552	-6036.7418	-6041.6001	-6038.6020	-6038.6129
-5872.9719	-5873.4205	-5874.6022	-5877.1080	-5877.5347	-5878.3991	-5877.2502	-5878.4648	-5880.9049	-5884.4282	-5886.1352	-5889.0676	-5890.7090	-5892.7989	-5894.1885	-5895.9830	-5897.3180	-5897.0663	-5897.5587	-5896.2566	-5898.1714	-5901.6073	-5901.8699	-5901.7057	-5905.0212	-5906.7391	-5906.6516	-5907.2315	-5909.5293	-5909.0041	-5911.3895	-5909.9451	-5912.2758	-5917.9109	-5920.0337	-5920.8215	-5922.3972	-5924.3558	-5924.5856	-5926.1941	-5926.7412	-5927.6822	-5932.6280	-5932.8688	-5934.4772	-5936.3593	-5937.7817	-5938.0444	-5939.2480	-5939.6747	-5942.4978	-5942.4540	-5944.7409	-5947.0278	-5949.3475	-5951.3280	-5952.5317	-5953.8009	-5957.6088	-5959.6221	-5973.7155	-6030.4064	-6092.1525	-6127.9550	-6129.5306	-6129.1805	-6129.2024	-6130.5154	-6132.8132	-6133.7980	-6129.7495	-6036.1619	-5969.7326	-5969.8967	-5971.0128	-5973.8687	-5974.3611	-5976.2650	-5980.7294	-5981.8126	-5984.0667	-5989.9317	-6019.1142	-6080.1381	-6138.8423	-6155.7697	-6156.6560	-6155.9885	-6158.0675	-6158.8663	-6160.0262	-6159.4244	-6161.0547	-6163.0243	-6163.6699	-6164.7422	-6074.2622	-6000.0312	-6000.6002	-6002.1977	-6004.3861	-6008.1502	-6005.7539	-6005.6335	-6011.7830	-6049.7848	-6113.3145	-6170.4430	-6183.7048	-6184.6349	-6185.6744	-6186.3200	-6186.4075	-6186.7029	-6189.7886	-6190.1716	-6190.8719	-6192.5022	-6193.9138	-6116.7174	-6030.9425	-6031.8507	-6033.2404	-6034.2252	-6034.1157	-6036.8294	-6038.9631	-6038.4269
-5866.9318	-5868.3324	-5870.0941	-5871.1008	-5871.4947	-5873.3548	-5875.5651	-5873.1360	-5875.8387	-5880.0733	-5881.3535	-5883.8592	-5885.3911	-5886.3212	-5887.1200	-5887.9625	-5890.0087	-5891.0810	-5895.6657	-5895.3484	-5896.8803	-5897.2523	-5896.4754	-5901.0602	-5902.3951	-5901.5416	-5900.6991	-5902.6358	-5907.1002	-5905.9841	-5908.1506	-5904.3318	-5913.3481	-5914.5189	-5913.5560	-5916.7183	-5917.7030	-5917.0684	-5920.0009	-5923.5899	-5927.7150	-5932.2998	-5947.3779	-5949.8290	-5941.7537	-5933.8535	-5932.8797	-5933.8973	-5935.1119	-5937.2456	-5939.1933	-5939.0182	-5941.6115	-5943.5373	-5943.2637	-5947.0716	-5948.3080	-5949.8399	-5953.2429	-5960.0270	-6007.9751	-6070.8592	-6116.7831	-6122.7356	-6122.0134	-6124.4535	-6126.1823	-6126.1386	-6126.6310	-6127.0030	-6129.8917	-6123.0639	-5992.9407	-5964.9947	-5966.1327	-5969.5247	-5968.6493	-5970.5861	-5973.6936	-5978.1252	-5978.5300	-5983.3992	-6026.1937	-6088.5088	-6141.6763	-6150.8458	-6151.1740	-6152.5746	-6153.4938	-6153.9205	-6154.7302	-6157.0171	-6157.9472	-6158.8335	-6159.7307	-6161.0657	-6102.8867	-5998.9370	-5997.1753	-5998.1273	-6001.3552	-6001.3224	-6000.6221	-6003.6202	-6007.5265	-6018.8187	-6068.8459	-6132.7366	-6178.6605	-6181.8884	-6182.2495	-6181.1225	-6183.3547	-6183.3656	-6184.6787	-6186.8124	-6187.9175	-6189.2962	-6182.1401	-6051.0650	-6026.9377	-6027.8459	-6027.7693	-6029.8702	-6031.3912	-6032.2665	-6033.4921	-6034.0392
-5861.7234	-5864.7215	-5864.8638	-5865.6407	-5867.5774	-5869.7111	-5870.9147	-5871.6150	-5868.0807	-5874.7116	-5878.6398	-5879.0009	-5880.8720	-5882.8088	-5884.9425	-5886.7589	-5888.8816	-5889.3412	-5891.6171	-5890.0743	-5891.4858	-5893.0396	-5891.6609	-5896.6505	-5896.7927	-5897.3508	-5899.9441	-5899.0359	-5898.2918	-5903.3033	-5903.2267	-5904.5835	-5907.1549	-5909.5403	-5910.5907	-5913.7092	-5914.4970	-5914.6721	-5919.9571	-5951.8314	-6014.9890	-6074.4263	-6089.7781	-6089.9203	-6092.1525	-6075.4221	-5975.0942	-5929.6080	-5929.3016	-5931.0961	-5932.0700	-5933.9301	-5935.0900	-5936.1623	-5938.3398	-5940.7142	-5944.0625	-5945.6600	-5946.6011	-5972.5447	-6034.3674	-6095.1397	-6117.3521	-6116.2469	-6117.9977	-6117.8773	-6120.6566	-6121.0943	-6121.7836	-6123.8736	-6124.1690	-6124.2894	-6070.7607	-5964.2944	-5962.4342	-5962.0075	-5965.3339	-5966.6688	-5971.2864	-5972.5994	-5974.4924	-5977.9939	-6022.1232	-6084.8651	-6138.1311	-6145.7468	-6146.9613	-6148.3838	-6148.7340	-6149.3358	-6149.4233	-6152.0275	-6152.6074	-6153.2202	-6154.9272	-6156.8639	-6080.1819	-5992.3827	-5992.8970	-5995.4246	-5997.7334	-5998.1820	-6001.2567	-5998.4774	-6001.6834	-6006.2463	-6031.9164	-6093.4874	-6155.2883	-6177.6757	-6176.7128	-6178.1244	-6178.9778	-6180.6629	-6180.5426	-6182.0526	-6183.9237	-6185.3680	-6101.5299	-6021.2588	-6022.7141	-6022.9658	-6023.9506	-6024.8588	-6027.6271	-6030.1875	-6026.8174	-6027.5943



