waffle_test01_2019-05-13_13.30.56, 5um, 128 pixels, Left.wsf

Pixels in X: 	128
Lines in Y: 	128
X Range: 	5.000
Y Range: 	5.000
Z-Drive Calibration: 	1.0000
Z-Sense Calibration: 	1.9316
X Calibration: 	0.5952
Y Calibration: 	0.5940
X Offset: 	25.000
Y Offset: 	25.000
Rotation(°): 	0
Scan Rate(Hz): 	0.25
Scan Type: 	Vibrating
Vpp: 	0.101
Phase: 	86.51
Demod Gain : 	1dB
Selected (kHz) : 	149.52
Display Type: 	Z_DRIVE
Samples/Pixel: 	25
XY HV Gain: 	15
Z HV Gain: 	15
Z Sensor Gain: 	640
X GPID: 	100.000000000 %, 256, 4096, 0
Y GPID: 	100.000000000 %, 256, 4096, 0
Z GPID: 	1.0000, 100, 1000, 0
Setpoint: 	297





-9987.8474	-10077.9663	-10092.8476	-10040.3913	-9960.1749	-9959.0151	-10012.2154	-10087.7486	-10107.7835	-10118.4520	-10116.8982	-10120.2793	-10124.5577	-10102.1264	-9981.7965	-9981.0524	-9988.3289	-10026.4073	-10073.3597	-10079.6952	-9999.5555	-10014.8525	-10072.3968	-10169.0700	-10177.9988	-10181.4346	-10186.2600	-10188.2734	-10191.4903	-10194.5213	-10200.2440	-10129.6239	-10051.2239	-10047.4161	-10046.2453	-10043.2034	-10051.6835	-10089.4008	-10164.1680	-10236.2544	-10239.3947	-10242.6117	-10246.8135	-10249.4724	-10247.0651	-10246.9448	-10250.6979	-10254.4510	-10257.6242	-10164.2336	-10107.7397	-10104.6431	-10109.0856	-10136.2329	-10271.8270	-10286.7520	-10290.1550	-10292.7045	-10297.2017	-10299.3573	-10301.8521	-10307.3122	-10310.3869	-10314.0197	-10316.6567	-10270.9517	-10184.8594	-10169.7266	-10178.8085	-10186.1178	-10240.0403	-10296.4467	-10349.4391	-10352.7546	-10356.5515	-10361.0268	-10362.6134	-10367.2419	-10370.4808	-10373.5336	-10375.6345	-10309.7194	-10249.6803	-10230.1377	-10287.0365	-10259.0576	-10250.1727	-10246.9995	-10303.8107	-10380.4162	-10414.7852	-10419.5888	-10421.9304	-10426.0446	-10430.3667	-10433.1351	-10424.6768	-10327.8504	-10290.5270	-10307.4654	-10410.8679	-10448.7822	-10416.6454	-10308.4392	-10311.6343	-10376.5208	-10423.4623	-10478.9495	-10481.4990	-10485.7883	-10486.5652	-10487.4843	-10472.0122	-10351.0367	-10348.9468	-10427.7078	-10453.5967	-10521.3172	-10523.5822	-10525.1579	-10503.6020	-10377.9651	-10375.2843	-10383.0641	-10496.3255	-10539.5029	-10546.0791	-10540.7613
-10067.8449	-10076.4454	-10078.7761	-10080.8332	-10032.9944	-9959.6607	-9941.0482	-9973.9838	-10093.1758	-10098.7563	-10105.4747	-10108.9871	-10071.4996	-9979.5533	-9961.5536	-9969.4210	-9999.3585	-10061.0390	-10134.1320	-10140.4127	-10071.1057	-9991.6881	-10007.2040	-10044.2538	-10150.6764	-10171.5758	-10175.0006	-10178.2285	-10181.2595	-10183.8090	-10129.4488	-10043.3128	-10035.0625	-10038.1700	-10096.3819	-10185.7129	-10094.9375	-10051.8804	-10077.6490	-10201.0428	-10229.1967	-10233.4970	-10236.5060	-10242.4804	-10243.5527	-10246.1898	-10248.6736	-10248.6189	-10207.3235	-10101.0979	-10099.0845	-10097.4104	-10098.8329	-10114.6332	-10184.7391	-10264.7147	-10281.6421	-10283.6773	-10287.8243	-10289.7501	-10292.9124	-10299.3573	-10302.4429	-10304.8502	-10309.0738	-10276.9807	-10168.2822	-10157.5918	-10160.5133	-10174.4973	-10276.6415	-10337.7968	-10341.2217	-10343.6836	-10347.8744	-10352.8640	-10355.8512	-10359.7903	-10362.9307	-10367.5592	-10368.8723	-10371.9470	-10317.8603	-10218.9987	-10227.6648	-10224.0868	-10233.8690	-10296.0747	-10348.4434	-10402.9349	-10407.6619	-10409.9050	-10413.8223	-10415.7153	-10421.0222	-10424.3157	-10428.5832	-10383.1954	-10363.9155	-10282.2111	-10297.0923	-10335.9585	-10304.2265	-10297.7379	-10301.1299	-10345.9486	-10463.8495	-10471.4104	-10474.8462	-10478.6541	-10480.0765	-10481.9586	-10483.4686	-10474.8572	-10345.9377	-10342.9833	-10412.5968	-10509.2919	-10516.3714	-10390.6360	-10370.3057	-10362.8104	-10403.6352	-10471.6840	-10523.0789	-10533.4301	-10538.3103	-10542.2932
-10066.3896	-10072.1014	-10073.2831	-10075.9311	-10079.8812	-10048.4665	-9936.9230	-9932.4915	-9999.6539	-10064.2340	-10099.6864	-10087.6282	-9983.0110	-9958.9275	-9967.6374	-9977.6166	-10068.5015	-10122.9711	-10131.9983	-10134.4493	-10138.0055	-10053.8172	-9990.8456	-9997.6953	-10093.0445	-10144.6036	-10168.9606	-10171.4773	-10175.1210	-10140.5659	-10037.7214	-10023.4420	-10031.6376	-10083.6672	-10167.5272	-10202.3120	-10200.3753	-10069.4972	-10057.1326	-10102.6079	-10174.6067	-10217.4996	-10229.0216	-10234.3176	-10238.3443	-10241.5284	-10216.5915	-10180.7999	-10099.0189	-10092.1254	-10101.9076	-10175.8760	-10184.4436	-10119.8417	-10131.0354	-10161.0495	-10270.5906	-10279.6178	-10281.8937	-10284.3338	-10286.9271	-10293.7221	-10297.2673	-10300.5281	-10264.5287	-10221.3294	-10157.9638	-10154.9876	-10159.6708	-10167.4506	-10225.8484	-10295.9324	-10331.3191	-10341.8672	-10343.8259	-10347.7322	-10349.8112	-10354.0348	-10357.0001	-10360.7095	-10364.4407	-10366.7495	-10277.9874	-10224.6120	-10215.7270	-10227.1068	-10248.5532	-10330.4328	-10396.2274	-10398.7879	-10401.6985	-10405.4407	-10408.4169	-10406.4364	-10409.8722	-10416.1530	-10422.9918	-10426.1868	-10417.0612	-10357.6019	-10279.8913	-10280.8433	-10286.0736	-10298.8211	-10346.4848	-10446.7361	-10461.6939	-10465.0859	-10469.3314	-10471.4433	-10474.4961	-10478.3258	-10480.5689	-10484.8035	-10455.3037	-10336.3087	-10346.3207	-10407.1914	-10392.6822	-10359.8341	-10361.8365	-10397.3545	-10427.9485	-10519.2273	-10527.8715	-10531.1760	-10533.6599	-10536.6252
-10061.2031	-10066.0067	-10068.6875	-10072.1561	-10074.5524	-10073.4254	-10032.4036	-9928.6289	-9933.3012	-9991.2504	-10064.4091	-9960.7111	-9951.3447	-9956.9799	-9988.7994	-10081.6648	-10119.1961	-10123.5401	-10126.6257	-10130.9041	-10134.2961	-10136.5393	-10049.6811	-9988.1210	-9995.9883	-10082.0587	-10147.6673	-10166.9910	-10058.6208	-10038.5968	-10018.3649	-10022.9058	-10098.7453	-10167.5053	-10195.4295	-10200.2112	-10202.0713	-10184.4765	-10088.3723	-10054.2220	-10104.3258	-10189.6083	-10227.5664	-10228.3432	-10233.3438	-10235.9480	-10144.1878	-10092.3989	-10087.6938	-10096.9837	-10187.8247	-10219.0097	-10254.2541	-10199.5546	-10106.8753	-10115.1147	-10224.4260	-10274.2343	-10278.4689	-10280.8980	-10284.9466	-10288.6888	-10292.6060	-10283.2615	-10167.4068	-10148.6631	-10151.2673	-10163.0957	-10224.6229	-10158.0733	-10168.6980	-10193.8757	-10276.5212	-10337.0418	-10341.0247	-10343.1256	-10345.8064	-10350.2707	-10352.2731	-10355.6542	-10357.6238	-10325.5198	-10241.0908	-10211.5253	-10209.2056	-10211.6347	-10235.5431	-10288.4809	-10389.7607	-10394.1375	-10398.3721	-10401.0091	-10405.2328	-10401.1514	-10400.8888	-10409.9269	-10417.3347	-10422.5212	-10418.5055	-10315.3108	-10270.3499	-10272.5273	-10277.3965	-10361.6724	-10436.0675	-10453.4107	-10457.8313	-10462.0112	-10464.5716	-10468.7406	-10472.2420	-10475.3715	-10478.2383	-10480.6018	-10484.2345	-10356.4421	-10334.6783	-10344.8872	-10349.6799	-10359.2651	-10400.3636	-10441.0790	-10513.8000	-10520.2230	-10522.6193	-10525.6940	-10529.6551	-10533.6818
-10059.7040	-10064.2012	-10067.5495	-10071.6309	-10069.4315	-10069.9130	-10070.6570	-9971.0076	-9920.4005	-9927.4472	-9932.0757	-9938.4330	-9947.7119	-9994.5549	-10104.7854	-10112.7731	-10116.3949	-10119.6994	-10121.7237	-10126.4069	-10130.8166	-10133.2347	-10124.2294	-10012.1826	-9988.4055	-10002.0612	-10062.7678	-10056.8153	-10012.7407	-10010.9352	-10019.6560	-10066.4006	-10164.8355	-10186.7415	-10191.1621	-10195.0793	-10198.0665	-10203.4610	-10201.6774	-10092.3989	-10053.4670	-10141.4194	-10178.9726	-10226.3190	-10187.3324	-10154.6593	-10090.4294	-10078.4697	-10087.0045	-10192.3657	-10244.8329	-10246.7478	-10250.8839	-10222.6534	-10184.2357	-10109.7093	-10118.1237	-10200.3096	-10274.7048	-10279.1692	-10282.6378	-10284.0056	-10262.1871	-10155.6332	-10145.1835	-10145.9823	-10196.0532	-10218.0686	-10311.4592	-10282.1673	-10165.0981	-10176.7623	-10247.9624	-10286.6207	-10338.1250	-10341.2107	-10344.1541	-10346.9115	-10351.1133	-10353.0172	-10298.1318	-10207.9800	-10206.3934	-10220.5963	-10235.3571	-10285.7016	-10223.1567	-10258.7731	-10334.5798	-10371.1810	-10391.7959	-10401.5125	-10402.4097	-10405.2875	-10406.4911	-10410.3537	-10416.6125	-10419.9717	-10335.1597	-10282.3205	-10270.1091	-10269.0587	-10296.9500	-10362.0554	-10448.5087	-10451.2661	-10454.2095	-10458.0502	-10461.7376	-10465.3704	-10468.5983	-10471.6512	-10473.8505	-10477.5270	-10480.6127	-10428.4956	-10337.4357	-10334.7330	-10342.5566	-10369.0473	-10440.8602	-10505.1886	-10512.2791	-10514.9599	-10519.2492	-10522.3677	-10525.8144	-10530.3335
-10053.4342	-10059.1460	-10064.2778	-10066.5647	-10064.9453	-10066.8930	-10069.9677	-10054.8457	-9960.2734	-9918.4638	-9921.8996	-9926.1889	-9996.2728	-10043.9256	-10108.5932	-10111.6570	-10113.2326	-10116.6356	-10120.5748	-10123.9887	-10126.6476	-10131.1667	-10135.1058	-10118.9116	-10015.1260	-9988.5368	-9993.0777	-9995.6601	-10003.8885	-10025.0067	-10070.7336	-10149.3743	-10180.9860	-10183.7434	-10187.2886	-10192.5845	-10195.2325	-10200.9224	-10203.7783	-10103.1659	-10068.0966	-10063.9277	-10135.3794	-10199.5109	-10122.3036	-10072.6485	-10075.5700	-10090.2762	-10218.0577	-10238.7163	-10242.1302	-10244.4500	-10246.8244	-10250.9605	-10205.5290	-10125.4440	-10110.9567	-10134.2742	-10238.6835	-10276.0507	-10279.5850	-10203.0233	-10143.2249	-10136.3204	-10140.0954	-10179.9683	-10294.8382	-10305.7693	-10308.0125	-10311.0106	-10304.9049	-10179.7714	-10175.9198	-10272.3960	-10328.5945	-10337.9828	-10340.8277	-10344.5371	-10345.4234	-10312.8489	-10209.7745	-10202.8592	-10210.6937	-10280.2305	-10358.4226	-10371.8047	-10273.8404	-10227.5007	-10250.0851	-10342.1408	-10390.2968	-10393.2512	-10400.3088	-10404.8936	-10407.1914	-10411.1306	-10413.2861	-10350.1504	-10265.8855	-10267.9535	-10277.8342	-10284.0931	-10275.0331	-10301.6879	-10415.0040	-10437.0961	-10452.5682	-10454.8770	-10459.0568	-10463.2476	-10467.0992	-10469.4627	-10473.7958	-10469.4409	-10475.9404	-10375.3062	-10331.7568	-10337.2606	-10341.0575	-10358.2256	-10472.7235	-10474.4961	-10511.7757	-10514.5003	-10517.0607	-10521.1531	-10524.6436	-10528.1560
-10051.4209	-10056.4433	-10062.6912	-10062.5490	-10062.4505	-10065.2954	-10068.7312	-10023.9782	-9922.6327	-9917.4352	-9914.6450	-9934.4501	-10000.7153	-10098.5593	-10104.9057	-10107.8710	-10111.4272	-10114.1846	-10118.1675	-10120.4544	-10124.8422	-10128.2452	-10132.7971	-10134.7885	-10071.4449	-9983.3502	-9982.1029	-9986.8736	-10035.1281	-10039.4612	-10161.2246	-10174.9131	-10178.7757	-10182.6382	-10186.7743	-10190.5821	-10194.6307	-10199.5984	-10200.6379	-10205.2664	-10136.0906	-10055.2725	-10057.1764	-10095.6268	-10060.9624	-10072.1123	-10094.7296	-10204.0956	-10234.2738	-10236.3528	-10240.3795	-10242.0537	-10247.7216	-10250.2930	-10255.1841	-10256.6613	-10164.0367	-10110.0266	-10140.8942	-10261.5634	-10215.3550	-10142.3167	-10131.0354	-10137.3490	-10213.4839	-10226.6363	-10300.7798	-10304.5767	-10308.0453	-10310.7589	-10312.5863	-10225.7171	-10165.4373	-10174.3113	-10263.8503	-10333.4747	-10339.1208	-10327.7738	-10250.9277	-10201.1850	-10196.2392	-10212.4335	-10283.3928	-10325.6620	-10366.9902	-10376.1597	-10380.0113	-10275.8099	-10243.1588	-10258.9373	-10336.9324	-10394.1485	-10397.8797	-10401.6219	-10404.7076	-10394.7831	-10287.5180	-10267.4502	-10263.9269	-10278.3594	-10403.4054	-10421.9632	-10354.6804	-10290.7896	-10304.0843	-10417.5754	-10438.9781	-10451.5287	-10456.4636	-10461.2890	-10464.2215	-10468.1606	-10469.9989	-10399.9587	-10337.3482	-10325.4104	-10334.7002	-10393.3387	-10381.5651	-10365.4693	-10417.6630	-10485.3835	-10508.4822	-10512.0493	-10516.3495	-10519.6212	-10523.7245	-10526.1317
-10050.5565	-10056.1150	-10058.8396	-10063.7416	-10063.0961	-10064.0809	-9986.0748	-9954.9775	-9936.6714	-9925.9919	-9931.1784	-9923.4752	-9949.6596	-10080.4611	-10103.3191	-10106.0437	-10108.3853	-10111.3287	-10116.2855	-10118.6709	-10123.6167	-10125.7285	-10130.0944	-10077.8460	-10033.7604	-9980.3084	-9981.0852	-9986.4469	-10007.8824	-10143.5641	-10167.8226	-10172.1885	-10174.6286	-10179.3556	-10184.7500	-10187.7919	-10191.9390	-10193.7444	-10199.2045	-10202.4762	-10203.1546	-10110.9348	-10046.5079	-10046.2890	-10057.2530	-10085.4945	-10210.7484	-10227.2928	-10232.0745	-10236.0902	-10238.5084	-10239.9747	-10246.7806	-10249.0238	-10252.6675	-10255.8078	-10231.7134	-10157.0009	-10110.7160	-10118.6271	-10143.1592	-10124.7437	-10134.0554	-10174.5958	-10257.8978	-10294.9257	-10298.7992	-10302.0272	-10305.8678	-10309.6757	-10311.2185	-10310.2337	-10208.9539	-10167.6476	-10199.3796	-10279.1035	-10326.4170	-10226.7238	-10190.4508	-10190.0788	-10215.4972	-10304.5438	-10329.7544	-10362.2851	-10364.1891	-10376.0831	-10381.9809	-10379.5080	-10247.7435	-10228.5621	-10315.4640	-10360.7095	-10395.1989	-10400.0353	-10395.3849	-10309.1833	-10256.1142	-10261.8916	-10309.9930	-10380.2630	-10425.4209	-10430.0166	-10403.1975	-10336.7463	-10283.0645	-10291.6103	-10417.3566	-10448.3336	-10454.6034	-10459.5602	-10461.0264	-10465.8409	-10410.3208	-10322.7843	-10319.2390	-10326.0778	-10382.1450	-10454.0125	-10485.6789	-10401.2608	-10378.0417	-10416.3390	-10460.9936	-10511.5131	-10515.4851	-10518.0455	-10522.1816	-10524.8734
-10049.5279	-10054.1673	-10057.0889	-10059.9010	-10055.5570	-10002.7287	-9963.0308	-9971.9486	-10006.0550	-10008.4514	-10061.6408	-9939.7899	-9929.8107	-10001.8971	-10090.9765	-10102.4328	-10106.1094	-10109.7093	-10114.2721	-10117.4344	-10120.7498	-10123.7261	-10099.4456	-10054.4518	-9978.9515	-9977.4087	-9977.3212	-9980.6804	-10006.7553	-10082.5511	-10166.5424	-10172.2761	-10174.6395	-10178.1738	-10182.0473	-10185.5707	-10188.8971	-10191.4575	-10195.1997	-10198.3729	-10169.7813	-10048.8933	-10040.8837	-10042.7219	-10057.7782	-10131.8779	-10219.3598	-10223.8679	-10226.9536	-10232.1948	-10238.2020	-10238.6835	-10241.6707	-10246.7806	-10250.4900	-10252.6237	-10255.8078	-10176.4997	-10105.1136	-10105.1902	-10109.6436	-10124.5686	-10180.9641	-10281.2810	-10288.7435	-10292.6936	-10295.6589	-10299.4120	-10304.8611	-10309.6866	-10311.4592	-10311.4154	-10312.3674	-10211.5143	-10166.2907	-10174.5411	-10196.0641	-10181.9270	-10186.4132	-10194.8824	-10289.9362	-10348.3668	-10358.4007	-10358.5867	-10359.2542	-10366.3665	-10375.0545	-10372.2862	-10251.1793	-10225.9141	-10242.4804	-10285.6469	-10387.4628	-10345.0186	-10272.7352	-10249.0894	-10256.5519	-10277.8452	-10383.7973	-10420.9018	-10425.0926	-10427.9376	-10429.9400	-10428.4081	-10294.6960	-10284.4432	-10294.7397	-10406.8631	-10450.7737	-10454.7347	-10457.9517	-10419.6216	-10312.9364	-10312.2689	-10320.6287	-10411.2837	-10472.3514	-10483.7203	-10487.3858	-10482.8558	-10395.4615	-10375.1202	-10453.0496	-10485.0333	-10511.5131	-10514.9708	-10518.4832	-10523.1555
-9999.2819	-10051.1692	-10056.6512	-10056.5527	-9985.4511	-9964.1797	-10017.4129	-10025.0395	-10071.3136	-10075.4278	-10078.4806	-10061.0827	-9946.2566	-9936.1461	-10024.9301	-10013.1674	-10102.3890	-10108.0789	-10111.3615	-10114.0642	-10117.7845	-10070.3835	-10027.6547	-9973.4039	-9977.0476	-10034.9093	-10107.0394	-10088.1644	-9991.2395	-10021.5162	-10062.0566	-10167.0895	-10171.4992	-10176.2590	-10178.1848	-10181.3799	-10182.1786	-10190.4399	-10192.7924	-10098.0122	-10065.0766	-10041.2776	-10039.9864	-10040.0411	-10049.1449	-10087.1905	-10208.0348	-10222.4783	-10225.6515	-10230.5098	-10241.0579	-10239.7777	-10239.8762	-10244.4171	-10247.2840	-10250.2164	-10245.8287	-10198.0446	-10098.0560	-10100.1350	-10108.2868	-10180.7890	-10273.5778	-10280.7995	-10285.5156	-10288.5137	-10290.7240	-10297.4643	-10300.7360	-10303.0666	-10308.9207	-10312.5425	-10313.9650	-10269.5073	-10162.6580	-10163.1504	-10167.7132	-10178.0644	-10214.8845	-10301.7536	-10342.9614	-10351.2555	-10355.4463	-10357.1971	-10359.3855	-10362.5696	-10367.8218	-10370.6230	-10374.4199	-10316.4816	-10223.7147	-10256.7598	-10276.8494	-10249.1222	-10244.8767	-10246.7916	-10336.5384	-10388.3929	-10414.3038	-10417.4441	-10422.1164	-10424.3157	-10427.6968	-10431.7235	-10432.3582	-10312.4221	-10284.4651	-10328.7149	-10418.9432	-10452.4150	-10402.5410	-10319.7424	-10313.1334	-10335.4661	-10402.8583	-10464.5497	-10482.3087	-10481.2255	-10486.4448	-10488.4910	-10424.1735	-10356.7922	-10378.0198	-10398.4377	-10503.7661	-10512.9575	-10508.7448	-10482.7355
-9952.0778	-10052.7668	-10052.0883	-10030.9811	-9961.1597	-10023.8140	-10056.4433	-10071.7512	-10070.5804	-10073.2394	-10077.1457	-10080.2970	-10007.4447	-9941.9892	-9950.5678	-10002.0174	-10099.1721	-10106.6455	-10110.1032	-10112.6637	-10098.4390	-9982.0591	-9971.0295	-9991.9945	-10030.9045	-10131.8889	-10138.9246	-10130.1163	-10017.8725	-9995.7367	-10008.1450	-10095.4080	-10169.7484	-10175.8322	-10176.1824	-10180.8765	-10183.1306	-10185.9755	-10149.1555	-10041.1463	-10036.5178	-10046.0374	-10130.6634	-10159.1675	-10043.5098	-10063.9277	-10105.6936	-10198.0337	-10224.3384	-10228.9122	-10233.4422	-10234.9085	-10240.2263	-10243.4871	-10246.2882	-10246.7259	-10143.2686	-10113.2326	-10100.8243	-10100.6711	-10111.9743	-10136.8128	-10204.6755	-10282.4080	-10282.7363	-10287.7696	-10290.1659	-10293.6893	-10292.9999	-10301.8411	-10305.3535	-10309.6538	-10313.6695	-10237.7425	-10159.9662	-10158.2702	-10164.2446	-10218.5720	-10266.3560	-10341.5061	-10347.6009	-10349.0124	-10355.5558	-10358.5648	-10361.8475	-10365.1410	-10368.3252	-10371.3561	-10375.8971	-10377.4727	-10291.4352	-10221.5482	-10227.1615	-10234.5912	-10273.6762	-10341.1779	-10402.9131	-10407.9464	-10411.1524	-10416.7876	-10419.5997	-10422.5322	-10426.2416	-10429.4695	-10432.6645	-10409.5877	-10281.9047	-10292.7264	-10309.7085	-10327.5550	-10302.9682	-10306.0538	-10327.7410	-10442.4905	-10479.9124	-10475.6450	-10479.7811	-10481.3130	-10485.3506	-10489.3226	-10481.2255	-10361.7380	-10349.3188	-10370.5464	-10444.0881	-10510.7909	-10504.0725	-10392.7369
-9920.8929	-9999.7415	-10011.6355	-9970.7559	-9978.4810	-10044.7900	-10063.5228	-10076.4454	-10071.3683	-10073.0862	-10076.7408	-10080.6581	-10080.9973	-9965.7554	-9938.5315	-9944.6481	-10029.0225	-10098.4608	-10107.2692	-10033.7932	-9983.3393	-9995.9555	-9981.3369	-10053.0731	-10121.8659	-10134.5150	-10138.1587	-10142.6012	-10131.2433	-10015.7825	-10001.5688	-10023.7484	-10138.5198	-10175.0225	-10176.5544	-10180.6905	-10181.6753	-10067.2541	-10036.1239	-10033.7713	-10049.8562	-10155.3815	-10199.7954	-10201.2178	-10186.0740	-10084.5972	-10064.9015	-10167.0567	-10183.5902	-10227.3147	-10230.3456	-10232.3809	-10237.5455	-10238.1911	-10216.3070	-10124.1528	-10097.9575	-10102.4766	-10122.6538	-10208.5490	-10151.1032	-10119.9511	-10144.1331	-10246.1679	-10283.7648	-10287.8134	-10290.9209	-10294.8929	-10295.9434	-10302.5743	-10305.0034	-10308.6909	-10247.0761	-10178.1191	-10159.7146	-10157.4386	-10157.3620	-10177.7471	-10207.5095	-10325.0164	-10344.4605	-10347.9401	-10351.5181	-10356.0810	-10359.5496	-10362.3070	-10366.5963	-10369.3209	-10373.2053	-10334.7987	-10234.0222	-10221.7233	-10223.2880	-10235.2149	-10326.6687	-10369.4631	-10404.2042	-10407.7385	-10410.0473	-10414.5335	-10418.4399	-10424.1735	-10426.3838	-10431.1983	-10433.3758	-10419.7638	-10396.4791	-10287.9447	-10284.9794	-10292.8905	-10297.2345	-10333.0370	-10422.8714	-10457.8860	-10470.5351	-10472.9642	-10478.9933	-10479.2778	-10484.0157	-10486.2916	-10489.6727	-10486.3573	-10352.2184	-10341.7469	-10352.4482	-10416.5906	-10369.5179	-10364.7580
-9881.0856	-9900.0264	-9929.2526	-9980.9649	-10035.6096	-10058.2268	-10062.6693	-10065.1532	-10069.5738	-10072.8564	-10077.3317	-10081.4350	-10084.8708	-10087.1577	-10040.2600	-9951.7714	-9951.4979	-10025.2912	-10028.6395	-9960.5141	-9960.5579	-9976.6099	-10019.5357	-10121.1547	-10129.2409	-10133.1800	-10135.3685	-10141.4194	-10144.6145	-10138.8261	-10011.0118	-10004.0636	-10058.3034	-10152.9195	-10176.8827	-10147.4157	-10089.5321	-10030.4449	-10032.0425	-10056.1807	-10180.3732	-10196.6331	-10200.0033	-10202.0166	-10205.4962	-10129.8646	-10058.5989	-10072.6047	-10137.5240	-10219.4254	-10231.1006	-10234.6787	-10236.3200	-10164.5400	-10168.1728	-10095.8676	-10101.6778	-10166.7394	-10210.9672	-10262.1652	-10239.3400	-10121.3407	-10120.9906	-10170.1642	-10255.2279	-10286.7848	-10289.7720	-10293.6565	-10296.2716	-10299.6637	-10299.7621	-10211.0329	-10179.5088	-10159.5504	-10159.8678	-10236.8671	-10238.6288	-10163.9710	-10197.7054	-10298.7555	-10344.2088	-10346.5176	-10349.7455	-10355.1947	-10358.9916	-10362.3727	-10364.6705	-10367.8984	-10331.3191	-10244.0670	-10225.8484	-10220.1148	-10223.4521	-10235.5322	-10277.2105	-10392.4634	-10403.7337	-10405.7799	-10408.7233	-10412.9907	-10416.0983	-10420.4532	-10424.7753	-10428.1017	-10431.9424	-10434.5685	-10378.4685	-10291.4462	-10283.0208	-10288.6997	-10303.6138	-10395.1770	-10462.4270	-10464.8999	-10471.3557	-10473.3362	-10476.7502	-10480.1094	-10483.3592	-10486.4011	-10489.9572	-10492.5505	-10456.4198	-10345.6970	-10346.0799	-10352.2513	-10357.4378	-10387.3206
-9874.4000	-9884.3464	-9902.1163	-10014.7212	-10052.0446	-10057.4609	-10059.8134	-10065.7003	-10068.6984	-10072.1889	-10076.8940	-10079.6405	-10084.0939	-10087.2015	-10091.2938	-10004.7748	-9939.1990	-9956.3999	-9951.0930	-9954.3538	-9974.4325	-10033.0820	-10120.0496	-10123.2118	-10125.9692	-10130.5977	-10135.8937	-10139.9204	-10144.0455	-10147.5360	-10148.2910	-10018.4634	-10006.1864	-10047.5802	-10133.0050	-10046.6720	-10024.0110	-10028.1143	-10072.6266	-10137.7429	-10191.2824	-10194.7183	-10199.3905	-10201.2616	-10204.7631	-10208.8226	-10114.5238	-10062.4177	-10078.3384	-10150.6983	-10229.6016	-10231.1225	-10201.0537	-10120.2465	-10089.7510	-10105.9233	-10164.4962	-10255.0310	-10261.2679	-10263.4235	-10266.3888	-10260.8959	-10137.8742	-10126.3084	-10155.8192	-10265.8745	-10288.9623	-10292.7483	-10296.7202	-10297.2783	-10245.5551	-10159.4410	-10157.9967	-10175.4383	-10208.1223	-10317.1929	-10325.6949	-10254.6261	-10178.3817	-10198.5589	-10295.1555	-10348.2027	-10347.8635	-10348.8155	-10356.2123	-10358.4882	-10362.8870	-10311.7218	-10253.3130	-10219.1519	-10221.6357	-10238.1802	-10257.7118	-10230.4988	-10238.4756	-10304.5985	-10374.0698	-10407.3665	-10409.3251	-10415.8247	-10417.6739	-10423.4185	-10424.7315	-10429.0208	-10429.9837	-10364.1781	-10286.4456	-10283.5460	-10282.6378	-10288.1198	-10308.6799	-10380.3724	-10459.6368	-10464.2543	-10468.0184	-10469.9551	-10473.2268	-10477.2207	-10481.0176	-10485.0552	-10486.8935	-10491.5110	-10464.4075	-10354.8555	-10341.1998	-10342.0314	-10363.6748	-10441.4510
-9874.3782	-9876.2711	-9907.3685	-9948.6639	-10049.2981	-10057.1764	-10060.9186	-10064.2012	-10067.9981	-10072.6704	-10075.7232	-10080.6472	-10082.3541	-10086.3042	-10089.7291	-10013.0361	-9934.8878	-9935.5225	-9947.6900	-9967.4514	-10079.3888	-10112.7184	-10117.0952	-10120.6733	-10124.7984	-10128.9126	-10133.4645	-10138.0930	-10143.5750	-10146.5513	-10151.2892	-10125.6628	-10001.5360	-10012.4999	-10015.4871	-10016.5594	-10021.0676	-10057.3077	-10139.0888	-10181.7191	-10192.0374	-10196.2173	-10197.0817	-10200.8786	-10203.3953	-10207.4876	-10184.2905	-10105.5185	-10062.0785	-10096.3819	-10198.1759	-10137.8742	-10095.9004	-10083.7109	-10109.2935	-10145.3476	-10249.7569	-10255.5015	-10260.3160	-10262.7998	-10266.5967	-10248.2797	-10202.4324	-10128.9673	-10132.0530	-10220.7932	-10288.5903	-10295.0899	-10295.0023	-10241.4190	-10160.4367	-10159.2659	-10174.4973	-10255.3811	-10316.3722	-10323.3642	-10326.4389	-10317.2913	-10248.2578	-10183.2072	-10256.4972	-10316.1315	-10344.5480	-10346.7365	-10352.8750	-10356.0700	-10317.4445	-10238.7054	-10214.2827	-10220.9355	-10281.5108	-10364.0359	-10369.1021	-10350.0410	-10246.5837	-10250.4134	-10356.2013	-10406.7100	-10410.9117	-10412.6296	-10415.0806	-10419.8295	-10422.7291	-10417.6739	-10311.9844	-10287.9228	-10279.5193	-10283.0427	-10306.3274	-10294.3677	-10297.4424	-10325.2900	-10432.8506	-10456.6058	-10467.2306	-10469.7910	-10474.0803	-10477.4504	-10480.0109	-10483.5671	-10487.1123	-10476.6298	-10376.5427	-10344.2745	-10339.2411	-10344.7778	-10359.7794	-10437.6651
-9878.5690	-9923.3330	-9886.8740	-9931.7803	-9953.5878	-10055.8086	-10060.7326	-10062.7350	-10067.0024	-10071.7075	-10075.0120	-10079.0168	-10082.2556	-10085.3741	-9998.7676	-9939.9321	-9934.4282	-9936.1571	-9944.3308	-9960.2625	-10088.6130	-10113.8454	-10117.1608	-10119.6885	-10123.6495	-10127.1400	-10133.2129	-10137.4365	-10141.8024	-10150.6326	-10150.8296	-10138.0493	-10029.1866	-9996.3385	-9998.8005	-10020.1594	-10069.7707	-10169.4311	-10181.9051	-10185.4284	-10188.0545	-10192.5298	-10196.7207	-10198.4495	-10203.8330	-10205.7369	-10209.1946	-10197.7273	-10104.4352	-10068.1185	-10103.5927	-10074.8916	-10077.8241	-10121.2422	-10150.6108	-10243.9029	-10248.4876	-10249.4286	-10259.3093	-10260.0424	-10263.4563	-10266.2685	-10266.3013	-10211.3283	-10124.1309	-10178.3927	-10200.5723	-10260.6552	-10176.7514	-10152.6022	-10148.7615	-10172.7903	-10286.4894	-10315.7813	-10317.7728	-10323.3532	-10324.9180	-10322.0293	-10279.4646	-10217.7841	-10188.9518	-10235.0288	-10283.6116	-10348.0714	-10354.1771	-10253.8164	-10220.1476	-10212.4882	-10242.0865	-10263.2156	-10347.8963	-10378.6545	-10383.9833	-10386.6203	-10296.7531	-10240.2373	-10249.8444	-10343.5961	-10385.9091	-10411.4479	-10414.0083	-10419.0526	-10366.1258	-10320.3661	-10276.8713	-10278.7534	-10317.7619	-10360.2609	-10435.0827	-10438.9453	-10321.6791	-10304.7627	-10349.2312	-10411.8856	-10465.6877	-10469.8676	-10473.2596	-10476.3125	-10480.3610	-10483.7750	-10450.6861	-10374.4637	-10341.0685	-10341.5609	-10355.8950	-10374.2886	-10349.9972	-10378.1949
-9992.3118	-10032.7865	-9901.8099	-9889.2484	-9912.7739	-10001.4484	-10055.8962	-10061.7830	-10063.7745	-10067.9215	-10072.5391	-10076.2266	-10079.8046	-10058.4129	-9962.3086	-9934.3626	-9938.6957	-9934.5486	-9939.4835	-9949.4408	-10013.7801	-10099.4456	-10116.9967	-10120.3340	-10121.6471	-10126.8118	-10132.7752	-10135.7952	-10139.5593	-10142.1744	-10144.7786	-10053.0294	-10003.0897	-9995.9555	-10000.8904	-10022.8621	-10074.5086	-10178.6225	-10180.6139	-10185.1002	-10185.6582	-10190.8557	-10194.1493	-10196.7644	-10200.5285	-10204.7631	-10207.9363	-10209.3916	-10155.0642	-10058.4129	-10060.7763	-10072.3640	-10086.1182	-10185.1986	-10237.4033	-10244.6907	-10247.0104	-10249.4286	-10255.4358	-10256.8036	-10260.8302	-10263.7190	-10268.2380	-10257.5695	-10208.5381	-10124.2404	-10147.7330	-10145.0194	-10137.8195	-10151.7706	-10214.4906	-10279.1035	-10308.1875	-10310.7699	-10314.7200	-10316.4050	-10321.8432	-10322.4341	-10324.7538	-10272.8009	-10180.5920	-10187.8138	-10255.8844	-10326.2857	-10256.2674	-10207.1484	-10208.9429	-10226.3518	-10301.7208	-10367.5811	-10375.4375	-10380.0551	-10382.9657	-10385.5699	-10382.0793	-10264.2223	-10244.6688	-10278.6002	-10318.6591	-10409.2485	-10411.9512	-10399.4006	-10329.6340	-10269.5292	-10270.5468	-10303.5043	-10373.7087	-10435.1265	-10441.9653	-10443.9568	-10366.6291	-10299.8716	-10302.4539	-10338.2235	-10462.7552	-10469.8348	-10472.1435	-10474.9775	-10478.1070	-10426.7777	-10366.9793	-10334.9409	-10346.6599	-10380.3505	-10473.3034	-10494.7280	-10442.6656	-10359.1557
-10029.1866	-10034.0886	-10010.2021	-9896.8860	-9896.1857	-9945.6876	-10022.9934	-10059.6493	-10062.5380	-10065.9957	-10070.0443	-10062.2645	-10010.3553	-9937.8312	-9931.7037	-9938.4330	-10046.0811	-10080.2095	-9956.0170	-9949.2000	-9965.6241	-10035.7847	-10115.2788	-10117.0733	-10122.5225	-10126.4835	-10129.6457	-10134.5369	-10135.4232	-10133.9788	-10029.0553	-9995.5725	-9995.2115	-9993.8765	-9996.7981	-10016.1108	-10040.2271	-10129.4378	-10179.4212	-10183.0540	-10185.9318	-10189.3566	-10192.5845	-10194.6417	-10198.6902	-10202.0823	-10206.2403	-10169.7484	-10075.7560	-10056.4323	-10058.1831	-10065.4377	-10170.0658	-10229.5906	-10238.1036	-10240.2920	-10245.8287	-10247.7545	-10251.6061	-10253.9367	-10257.6023	-10262.9092	-10266.1919	-10271.6520	-10227.8508	-10130.5539	-10117.5548	-10123.1243	-10136.8128	-10182.8789	-10254.1665	-10305.1566	-10309.0191	-10309.8726	-10311.2404	-10315.3655	-10322.5435	-10323.9551	-10324.9070	-10327.8614	-10265.7432	-10181.2704	-10192.6721	-10196.9833	-10194.5322	-10198.5480	-10257.0443	-10309.8398	-10367.6468	-10369.8899	-10374.7263	-10376.3348	-10379.7049	-10382.3529	-10386.5875	-10369.7148	-10242.0099	-10240.6093	-10253.1708	-10366.4431	-10352.2075	-10273.6106	-10261.9463	-10277.9327	-10288.7325	-10385.2854	-10423.6155	-10438.7374	-10439.9410	-10443.6504	-10446.4625	-10394.7612	-10301.2284	-10318.1558	-10387.0689	-10466.2786	-10471.6730	-10473.4457	-10422.5650	-10350.0081	-10332.1616	-10354.1224	-10387.6489	-10483.8078	-10501.4574	-10504.7181	-10492.5833	-10374.1573
-10026.9872	-10032.1409	-10034.1762	-9976.8835	-9889.4563	-9895.1462	-9969.2678	-10042.1311	-10060.4371	-10064.0261	-10067.3525	-10001.5250	-9932.2070	-9928.7384	-9941.5406	-10045.8951	-10092.7163	-10095.9223	-10096.5569	-9970.8763	-9951.9356	-9979.7175	-10064.9890	-10116.8216	-10121.7237	-10126.8883	-10130.8275	-10133.7490	-10119.0757	-10012.0185	-9993.0996	-9997.0388	-10033.7166	-10095.8785	-10148.3458	-10023.5842	-10017.4676	-10061.1265	-10132.1843	-10181.4893	-10184.3233	-10187.6934	-10190.9542	-10193.4052	-10195.4733	-10199.8501	-10181.7081	-10064.0590	-10056.7497	-10056.5527	-10067.7355	-10060.8529	-10082.1353	-10204.6427	-10236.1340	-10240.7625	-10243.0056	-10247.5356	-10250.6760	-10253.0176	-10255.9829	-10260.6771	-10264.6928	-10263.1390	-10164.3102	-10120.4106	-10115.3773	-10122.6209	-10154.4514	-10249.1769	-10293.3063	-10298.4491	-10305.3207	-10309.4021	-10310.4197	-10314.2385	-10319.6111	-10321.7995	-10324.5459	-10326.8000	-10331.3957	-10219.1191	-10176.5872	-10182.4631	-10190.4946	-10225.9798	-10281.9594	-10360.2390	-10364.8018	-10367.8328	-10371.8595	-10375.3390	-10377.9651	-10381.0289	-10384.4647	-10388.4914	-10351.9230	-10253.6194	-10259.5829	-10260.1409	-10270.9079	-10254.7902	-10262.4606	-10293.9410	-10407.7604	-10427.4561	-10431.9533	-10434.1198	-10437.5228	-10442.3702	-10447.2941	-10430.1260	-10351.9777	-10301.9724	-10325.5854	-10422.3790	-10468.3576	-10396.6214	-10335.9038	-10324.2067	-10341.1888	-10413.3080	-10484.6941	-10496.8179	-10500.1443	-10502.5078	-10506.3922	-10501.0306
-10025.2256	-10028.5629	-10033.2023	-10014.7868	-9970.1322	-9894.3803	-9900.6938	-9966.3025	-10056.4980	-10048.2039	-9981.6105	-9919.7549	-9920.5975	-9966.3791	-9980.2427	-10081.0629	-10090.3965	-10092.0050	-10097.0712	-10097.2353	-9998.6473	-9954.8790	-10005.5408	-10037.3822	-10118.9116	-10124.6999	-10127.9169	-10098.3514	-10000.9670	-9985.3526	-9994.1938	-10042.5469	-10124.7328	-10152.7335	-10157.8872	-10140.9380	-10018.1132	-10021.9101	-10097.3885	-10169.8250	-10183.1525	-10185.9208	-10188.4594	-10191.3590	-10192.5736	-10101.7544	-10059.2226	-10052.6026	-10069.6066	-10137.6663	-10164.6057	-10101.2948	-10074.1366	-10086.6543	-10215.2893	-10239.2634	-10242.4695	-10245.0299	-10249.7678	-10253.9258	-10257.0662	-10258.3683	-10261.1804	-10175.2851	-10124.2513	-10116.8654	-10109.0528	-10115.4539	-10132.6329	-10225.6515	-10241.9661	-10297.0266	-10301.1080	-10307.1152	-10309.8726	-10313.0239	-10317.0068	-10320.0487	-10324.2286	-10327.1830	-10326.4280	-10223.8679	-10181.4236	-10177.5830	-10200.0689	-10257.3944	-10329.6887	-10357.6129	-10361.6724	-10366.0711	-10370.0540	-10371.5750	-10375.5360	-10378.8952	-10382.1341	-10385.9638	-10387.0142	-10336.4181	-10237.4580	-10240.1497	-10242.7539	-10250.8620	-10293.5142	-10397.4420	-10420.0374	-10425.7820	-10427.7953	-10429.6336	-10434.0214	-10438.5733	-10444.0224	-10446.5063	-10447.2722	-10326.9641	-10297.9348	-10309.1942	-10385.8106	-10316.6895	-10318.0354	-10327.4128	-10382.2872	-10476.2578	-10491.5110	-10493.8417	-10496.8289	-10500.3960	-10503.6458	-10505.8232
-10021.1879	-10026.4073	-10029.8541	-10034.2418	-10027.2498	-9920.0285	-9893.8332	-9928.3992	-9980.1442	-9953.7191	-9911.1982	-9914.3277	-9956.4218	-10022.7745	-10079.1590	-10082.2119	-10088.9741	-10090.7357	-10095.2439	-10096.1302	-10092.1254	-9974.9030	-9956.2905	-10019.1965	-10069.2893	-10119.1195	-10062.3301	-10003.3195	-9977.8136	-9985.0244	-10053.7515	-10093.6901	-10144.5707	-10150.6983	-10154.1450	-10157.6027	-10084.4112	-10010.6945	-10025.8055	-10093.0883	-10179.7714	-10183.2181	-10186.5992	-10189.1597	-10090.2433	-10044.4508	-10046.6611	-10068.5562	-10149.2430	-10213.1228	-10217.2699	-10217.6638	-10086.0963	-10082.6714	-10122.7304	-10200.9115	-10241.1345	-10244.4719	-10247.7545	-10251.6936	-10253.5100	-10225.3342	-10174.1800	-10112.7840	-10113.8016	-10135.8280	-10202.1041	-10208.4068	-10129.0002	-10149.3087	-10207.5642	-10294.7507	-10297.3002	-10304.9815	-10307.9906	-10312.2142	-10316.9631	-10318.9217	-10321.5369	-10317.1710	-10230.3456	-10186.3476	-10178.2395	-10169.5734	-10187.5731	-10219.8412	-10322.1277	-10353.2798	-10358.7727	-10362.6900	-10367.0997	-10369.9446	-10372.3737	-10376.2910	-10379.7159	-10383.1845	-10384.2787	-10283.2068	-10234.3176	-10232.8404	-10240.4561	-10313.9650	-10373.8619	-10416.0983	-10419.3043	-10423.0246	-10426.2306	-10429.1740	-10433.4196	-10437.7854	-10441.0681	-10444.1209	-10448.5634	-10422.7291	-10308.7784	-10297.3111	-10303.7888	-10322.4451	-10336.8558	-10405.6048	-10474.1459	-10479.4200	-10486.7840	-10491.2484	-10493.6557	-10498.9735	-10501.3808	-10504.6743
-10019.8639	-10026.3307	-10028.4644	-10032.9507	-10034.4278	-10019.8968	-9898.7680	-9893.9973	-9893.4174	-9898.9869	-9908.1016	-9933.0495	-10046.5407	-10072.9549	-10075.8217	-10083.1201	-10086.7966	-10087.6610	-10092.8476	-10096.6335	-10098.7891	-10076.0077	-9956.5641	-9961.0831	-10019.5904	-10065.4705	-9999.0084	-9973.5462	-9983.9630	-10042.6344	-10136.9660	-10142.1744	-10143.8923	-10147.1093	-10150.4904	-10155.7864	-10154.3639	-10048.7510	-10014.5242	-10067.3525	-10131.9764	-10178.4912	-10142.8638	-10110.6613	-10040.4022	-10041.5074	-10057.5703	-10162.5814	-10201.0099	-10211.0657	-10215.7380	-10217.2370	-10204.6755	-10085.1772	-10079.1481	-10136.1016	-10205.8354	-10242.0537	-10246.1241	-10247.9733	-10214.3483	-10130.7618	-10107.7288	-10113.1779	-10171.5977	-10228.8685	-10273.4136	-10269.5401	-10160.7869	-10132.9503	-10155.1845	-10261.9135	-10299.7293	-10301.1299	-10305.5943	-10310.2556	-10313.1552	-10317.7728	-10298.4163	-10229.7438	-10190.0022	-10192.0046	-10244.7673	-10264.2879	-10183.7652	-10194.2806	-10289.9252	-10348.4981	-10354.5819	-10359.5277	-10363.6420	-10368.1939	-10370.2291	-10374.8357	-10375.9956	-10379.4970	-10297.1142	-10233.8143	-10232.8404	-10233.9784	-10242.5679	-10254.3307	-10327.0954	-10396.5448	-10417.5645	-10423.8781	-10428.4956	-10428.0251	-10430.2245	-10433.5618	-10438.0480	-10442.6984	-10447.8084	-10426.2853	-10302.3773	-10292.5185	-10297.3658	-10313.6148	-10431.0779	-10462.5364	-10477.7678	-10480.1860	-10485.0990	-10488.7317	-10494.2356	-10497.3869	-10497.8793	-10502.5953
-10018.8026	-10022.6323	-10025.9477	-10029.2632	-10031.7470	-10035.8941	-9954.6820	-9886.7208	-9885.7579	-9897.1048	-9963.1402	-10028.2237	-10069.0486	-10070.8759	-10075.8983	-10077.2989	-10086.0854	-10086.7200	-10091.0640	-10093.5807	-10097.6949	-10100.0584	-10025.7070	-9950.1192	-9952.7562	-9959.1573	-9965.4709	-9977.9339	-10054.7910	-10122.2708	-10135.1496	-10138.3775	-10141.0802	-10144.6583	-10148.0065	-10151.9238	-10155.8848	-10156.5632	-10026.9653	-10018.2664	-10031.9768	-10114.4144	-10077.2113	-10035.0625	-10037.0102	-10101.1964	-10153.5979	-10202.5528	-10206.8092	-10209.8183	-10213.4292	-10216.3070	-10219.5786	-10196.7425	-10094.4232	-10115.7821	-10132.3922	-10236.3747	-10242.4585	-10208.3958	-10119.6447	-10100.6930	-10116.7232	-10132.9831	-10252.7988	-10272.9322	-10274.3547	-10277.4403	-10280.4384	-10198.6027	-10134.8213	-10143.2030	-10270.0654	-10300.2764	-10303.0338	-10305.0690	-10309.3912	-10253.8164	-10197.3553	-10189.0503	-10200.0580	-10260.2284	-10340.0180	-10343.1803	-10230.7177	-10190.2648	-10222.7300	-10253.4444	-10347.5024	-10357.2518	-10361.2566	-10363.2152	-10369.1458	-10372.1111	-10356.2232	-10259.4187	-10232.7967	-10230.9693	-10238.5850	-10307.0277	-10258.8497	-10244.8767	-10277.0026	-10371.1154	-10414.2381	-10421.9085	-10423.3200	-10427.5218	-10429.8524	-10433.9448	-10436.8116	-10441.3854	-10417.7505	-10332.5008	-10296.2716	-10292.2340	-10296.1513	-10315.8798	-10364.2766	-10461.7814	-10476.7830	-10480.7550	-10484.2345	-10486.4448	-10490.7998	-10493.4915	-10497.8465	-10499.2689
-10015.9029	-10020.4658	-10022.2055	-10026.8450	-10027.1623	-9970.1760	-9889.2156	-9882.5519	-9880.6698	-9902.5321	-9925.8825	-10050.5127	-10074.7931	-10070.1428	-10073.7646	-10076.7627	-10081.3693	-10085.4726	-10088.1644	-10093.5807	-10097.4104	-10097.4979	-10077.8132	-9955.8419	-9945.8955	-9953.1392	-9974.4215	-10031.4516	-10120.0386	-10132.5673	-10133.2785	-10137.0426	-10138.1149	-10142.3495	-10145.2820	-10150.6655	-10154.8672	-10159.1456	-10138.0711	-10025.8930	-10016.3515	-10021.7788	-10027.5453	-10034.0886	-10089.6306	-10103.4504	-10195.6483	-10198.7121	-10203.4500	-10206.9187	-10211.0876	-10213.8122	-10217.6747	-10220.9792	-10217.9483	-10101.4371	-10096.6116	-10176.8498	-10162.2859	-10098.9423	-10095.3424	-10111.0223	-10174.4098	-10252.2517	-10264.9664	-10269.6714	-10273.3152	-10275.9960	-10278.6549	-10197.0051	-10198.4167	-10139.1872	-10221.5482	-10266.7718	-10300.1342	-10288.0213	-10205.5837	-10175.4821	-10171.4554	-10191.7639	-10270.9298	-10314.0744	-10336.8448	-10340.3682	-10340.8606	-10241.2658	-10193.2411	-10210.6608	-10283.6992	-10342.4143	-10360.0639	-10364.3970	-10366.7714	-10324.0207	-10252.0547	-10226.4393	-10226.8661	-10304.0295	-10357.1314	-10391.6974	-10359.3417	-10252.1860	-10260.1190	-10304.3906	-10389.7826	-10417.2253	-10421.0003	-10426.5151	-10428.6926	-10431.6579	-10433.0913	-10406.5786	-10312.1595	-10290.4176	-10304.8393	-10355.9825	-10305.7037	-10294.9476	-10333.7701	-10433.1241	-10461.8142	-10479.2012	-10482.1774	-10484.0923	-10490.1651	-10492.6271	-10494.7389	-10499.0063
-10014.5570	-10020.2469	-10021.7679	-10021.3521	-9937.7765	-9881.9610	-9884.3354	-9889.6642	-9963.3591	-9888.8983	-9919.2297	-9987.6942	-10060.8967	-10070.1428	-10072.7689	-10076.5001	-10080.8113	-10083.2514	-10088.2738	-10090.0902	-10094.3247	-10080.5487	-9995.3646	-9945.3922	-9947.0116	-9954.5835	-9999.2163	-10066.1489	-10125.9692	-10129.9193	-10132.6548	-10133.1253	-10132.6001	-10140.3143	-10146.4418	-10149.6916	-10155.0642	-10159.6927	-10150.5232	-10025.3678	-10007.4994	-10010.5741	-10023.3982	-10043.4769	-10149.2758	-10189.1487	-10194.8277	-10197.9133	-10202.1917	-10206.5795	-10210.5733	-10212.8274	-10216.7775	-10219.5130	-10225.0497	-10140.9817	-10090.7029	-10087.6173	-10081.5553	-10088.5802	-10097.5417	-10180.0449	-10235.1711	-10257.9087	-10261.3555	-10266.9359	-10269.3979	-10274.9783	-10278.2281	-10280.6354	-10175.7338	-10157.6903	-10139.1544	-10188.4156	-10217.5106	-10178.2723	-10157.2635	-10169.3983	-10196.7863	-10260.7099	-10324.8304	-10333.8467	-10337.7202	-10340.3901	-10342.3377	-10343.0927	-10215.5957	-10190.3852	-10237.4033	-10310.2446	-10357.4706	-10362.0116	-10332.5446	-10236.6483	-10218.8346	-10224.2181	-10296.9719	-10322.2590	-10388.0756	-10391.1941	-10394.6080	-10374.3324	-10250.9824	-10261.7713	-10301.7317	-10412.9141	-10420.5736	-10424.3486	-10426.6683	-10418.6040	-10355.2822	-10289.3781	-10286.5988	-10294.5865	-10337.1512	-10428.3205	-10456.4964	-10354.7132	-10308.7237	-10384.0817	-10405.1124	-10478.6431	-10480.8534	-10483.0637	-10487.3202	-10490.4059	-10494.0933	-10493.2508
-10014.0975	-10018.1898	-10017.8725	-9895.5729	-9877.8249	-9878.1641	-9904.6111	-9981.8512	-10048.9917	-9991.3927	-9903.0136	-9919.5361	-9963.9718	-10065.0328	-10070.4820	-10073.7208	-10078.3712	-10081.3474	-10086.1620	-10084.2799	-10017.9819	-9960.5360	-9945.6876	-9952.8766	-9969.4429	-9947.5040	-9957.4285	-10004.6107	-10107.8054	-10126.4069	-10131.0026	-10135.4779	-10136.6706	-10139.1106	-10145.2710	-10150.1512	-10152.8211	-10157.4496	-10079.9031	-10015.9904	-10006.4599	-10009.8738	-10019.7764	-10096.4256	-10151.1141	-10190.7900	-10192.2344	-10195.9219	-10199.3577	-10203.8768	-10208.4943	-10211.1423	-10214.6219	-10217.5981	-10225.0497	-10205.2774	-10087.6829	-10076.7518	-10078.1633	-10085.4726	-10176.6310	-10249.9648	-10253.1270	-10256.7707	-10259.9658	-10265.8308	-10268.5991	-10272.0787	-10276.0069	-10279.8257	-10283.6007	-10264.3208	-10134.9636	-10138.3775	-10141.8243	-10145.5993	-10157.2745	-10195.3201	-10290.2316	-10324.0207	-10327.6425	-10330.5641	-10334.5470	-10338.0813	-10342.1298	-10346.3535	-10345.5985	-10211.6894	-10197.3334	-10241.6597	-10321.7229	-10321.0664	-10219.9397	-10213.4401	-10220.7276	-10303.5809	-10380.0222	-10385.7340	-10386.2592	-10390.6032	-10393.5904	-10396.3478	-10373.4898	-10253.1380	-10268.0520	-10314.9388	-10374.5731	-10420.5954	-10417.6411	-10317.2476	-10291.0413	-10282.3642	-10286.9271	-10379.1578	-10433.5180	-10452.2509	-10454.9645	-10454.8879	-10330.5312	-10323.5393	-10356.5187	-10462.1315	-10480.0218	-10481.9914	-10485.3506	-10488.8193	-10490.0338	-10421.7225
-10010.9680	-9973.7978	-9923.6722	-9871.4347	-9871.1174	-9929.3839	-9966.2150	-10048.2805	-10049.2434	-10043.2253	-9920.1817	-9903.0792	-9943.7947	-10018.0366	-10068.7312	-10073.2284	-10078.2946	-10080.8332	-10084.7833	-9983.7989	-9948.2153	-9942.5254	-9947.5368	-10008.3529	-10069.9349	-10043.7943	-9965.0989	-9966.8277	-10016.9752	-10102.6407	-10130.5758	-10132.2171	-10136.4517	-10138.5088	-10142.8966	-10148.3020	-10151.2126	-10067.7574	-10006.7335	-10007.5103	-10026.8340	-10016.5047	-10006.3177	-10043.3785	-10109.3373	-10187.7591	-10191.9718	-10195.7249	-10199.3358	-10202.5747	-10205.4196	-10209.9168	-10213.2432	-10216.1647	-10189.7396	-10132.9174	-10081.9055	-10065.7659	-10074.6837	-10128.7594	-10193.8757	-10249.4286	-10252.0219	-10255.7531	-10258.7513	-10262.6904	-10266.1262	-10270.3389	-10274.2233	-10277.7139	-10280.3947	-10247.3387	-10157.7122	-10128.8032	-10130.6305	-10138.8043	-10170.5910	-10284.0712	-10301.7974	-10326.0778	-10327.4675	-10329.4918	-10335.4989	-10338.9457	-10342.2283	-10345.0295	-10349.5376	-10295.2540	-10192.3329	-10194.1055	-10203.0233	-10205.8463	-10210.7265	-10220.5306	-10300.3092	-10336.2758	-10381.7401	-10383.4033	-10387.7583	-10391.2269	-10393.9406	-10397.4201	-10399.1052	-10305.9225	-10250.4900	-10260.8850	-10362.8979	-10402.2675	-10274.7157	-10273.6215	-10274.7923	-10286.6098	-10389.3558	-10440.4553	-10447.4911	-10449.4278	-10453.9359	-10455.8836	-10443.1799	-10368.2814	-10318.7138	-10351.7042	-10468.1935	-10480.5471	-10480.7440	-10435.7612	-10371.2029	-10341.0794
-9955.3495	-9890.2442	-9869.1369	-9873.5903	-9936.9887	-10026.4182	-10043.0174	-10049.7686	-10050.1297	-10050.3814	-9991.3270	-9923.5409	-9908.8457	-9949.1234	-10026.8450	-10072.4953	-10077.1019	-10080.1985	-10003.3086	-9935.6100	-9938.6847	-9946.9569	-10060.3715	-10097.2353	-10105.4966	-10103.5051	-10070.0552	-9961.6412	-9987.8912	-10035.5768	-10122.4240	-10129.9959	-10133.6834	-10138.6948	-10139.8328	-10145.6102	-10089.0178	-10003.8338	-10003.1554	-10038.8922	-10114.7317	-10143.0388	-10056.3339	-10018.7478	-10062.0019	-10132.8627	-10190.1445	-10193.0660	-10196.7316	-10200.6817	-10203.0999	-10206.2074	-10202.3777	-10159.6051	-10081.8398	-10067.8449	-10070.0005	-10061.6736	-10067.8887	-10090.0683	-10148.1269	-10202.3668	-10248.0061	-10255.7860	-10256.3659	-10262.2308	-10266.3232	-10268.6648	-10270.5687	-10276.5540	-10277.9108	-10190.7244	-10127.2057	-10124.6233	-10128.1357	-10150.4247	-10261.1585	-10313.0896	-10315.3327	-10321.5587	-10326.5702	-10328.8681	-10334.9518	-10338.2892	-10342.3487	-10345.0076	-10348.0495	-10345.7626	-10220.6510	-10189.3019	-10189.9037	-10198.2088	-10227.0521	-10303.2855	-10371.7172	-10374.8357	-10379.6174	-10381.9918	-10385.5480	-10387.8458	-10392.6384	-10395.2536	-10397.2122	-10399.0943	-10292.9124	-10252.2735	-10269.4307	-10272.8556	-10261.7603	-10266.2794	-10281.1606	-10367.5811	-10440.4444	-10442.3264	-10447.1190	-10450.6205	-10454.0672	-10457.3389	-10459.7681	-10420.4204	-10326.8766	-10326.1325	-10372.9755	-10472.2092	-10402.9459	-10346.5504	-10332.8400	-10342.9724
-9870.8986	-9862.8233	-9867.3752	-9963.6107	-10000.0041	-10038.0387	-10040.0630	-10043.3566	-10047.6240	-10054.5722	-10055.2615	-10033.4321	-9910.9575	-9923.4643	-9950.7757	-10057.8876	-10074.6728	-9975.2641	-9936.9012	-9931.9006	-9954.8790	-10037.9950	-10096.4913	-10102.0717	-10104.7963	-10105.8796	-10095.6378	-9974.5528	-9963.1840	-9976.8835	-10091.8737	-10124.6452	-10132.4250	-10137.6335	-10100.7368	-10055.2506	-9994.4455	-10000.6825	-10026.4948	-10127.8294	-10163.8944	-10169.6718	-10148.1269	-10023.0700	-10029.2413	-10079.8593	-10153.2916	-10192.6502	-10195.6812	-10198.8653	-10203.8549	-10204.2379	-10178.6553	-10073.7646	-10061.5314	-10066.1161	-10092.7491	-10202.5965	-10162.9096	-10081.4897	-10099.9490	-10194.1930	-10244.5922	-10253.8930	-10255.3264	-10260.2066	-10264.2989	-10266.4216	-10266.0496	-10262.6795	-10251.3216	-10135.0949	-10124.5577	-10125.7613	-10129.7771	-10135.0183	-10194.5213	-10268.4350	-10309.9492	-10317.6743	-10324.6772	-10327.2267	-10332.8947	-10336.3634	-10340.7840	-10342.9724	-10346.2769	-10309.7194	-10210.9016	-10185.1221	-10190.0022	-10200.1127	-10250.4134	-10333.9342	-10369.2224	-10372.3190	-10376.9803	-10380.6350	-10383.0204	-10386.8501	-10390.5047	-10394.0062	-10396.9606	-10401.0091	-10351.2227	-10279.2020	-10247.9405	-10251.7702	-10260.9834	-10309.9054	-10388.8963	-10433.5290	-10438.4420	-10439.9629	-10445.0947	-10447.4582	-10451.1238	-10455.2380	-10458.7504	-10462.2629	-10393.0214	-10311.9188	-10318.1011	-10328.3538	-10332.5446	-10329.0869	-10349.3626	-10386.4124
-9849.2661	-9874.2578	-9903.7686	-10019.6779	-10030.9483	-10032.0644	-10034.9312	-10040.8071	-10044.8447	-10053.4889	-10056.7278	-10053.3248	-10034.9093	-9916.0346	-9914.3167	-9958.8619	-9962.8339	-9922.4138	-9926.3749	-9977.0695	-9997.4765	-10086.4683	-10095.8676	-10101.0760	-10104.6212	-10106.4376	-10110.0157	-10087.4531	-10027.3264	-9970.4167	-10020.8597	-10077.1785	-10127.4902	-10133.9241	-10034.8765	-9989.4231	-9997.8485	-10034.2637	-10125.7066	-10158.6204	-10162.0671	-10168.1290	-10170.2955	-10167.4834	-10040.3694	-10032.9616	-10093.3837	-10191.1730	-10194.9262	-10196.1954	-10198.5917	-10117.6751	-10072.3749	-10058.5442	-10073.2503	-10158.5766	-10191.8952	-10225.6734	-10226.8113	-10105.7701	-10086.6106	-10098.7453	-10228.7043	-10251.8578	-10255.3373	-10259.4187	-10261.4211	-10263.8503	-10265.4150	-10179.1696	-10127.1947	-10124.6999	-10137.2505	-10244.8767	-10265.4369	-10144.6145	-10141.6601	-10189.9803	-10297.0595	-10319.0421	-10319.6111	-10321.7338	-10321.3071	-10333.9561	-10337.8406	-10338.9895	-10305.1675	-10234.1863	-10186.6430	-10183.0649	-10181.8723	-10195.1559	-10228.0259	-10283.6882	-10368.4127	-10371.7610	-10374.8685	-10379.0922	-10383.0423	-10384.9462	-10388.6008	-10390.3844	-10394.5314	-10391.9382	-10356.2561	-10264.6819	-10246.9119	-10249.3630	-10278.3157	-10403.2413	-10427.5108	-10431.4828	-10435.1484	-10439.3720	-10442.6328	-10444.4492	-10445.4558	-10454.8660	-10458.0173	-10460.4355	-10457.9517	-10365.7538	-10312.3455	-10310.0149	-10318.0792	-10337.8187	-10391.5442	-10471.3010
-9852.5597	-9920.4990	-9985.4183	-10025.5210	-10027.6656	-10030.5106	-10034.6904	-10042.3061	-10045.6325	-10050.6221	-10054.2220	-10056.3558	-10058.8505	-9993.0887	-9899.8075	-9905.7053	-9907.4123	-9916.0346	-9960.6673	-10076.9487	-10077.8460	-10090.9874	-10093.4931	-10095.9551	-10102.4438	-10104.4899	-10106.8972	-10111.5585	-10099.0955	-9970.2964	-9982.8360	-10002.9584	-10046.7705	-9999.5773	-9982.7156	-9990.2985	-10021.1989	-10128.0810	-10149.4509	-10156.5195	-10160.9620	-10166.3455	-10169.1247	-10172.8450	-10103.1331	-10027.4030	-10036.5178	-10108.8996	-10145.2929	-10188.7767	-10130.4883	-10062.5380	-10057.4390	-10092.6287	-10143.0388	-10217.3793	-10222.7737	-10225.0387	-10229.0764	-10212.8821	-10148.6740	-10088.0659	-10106.0656	-10213.6262	-10248.4438	-10257.0771	-10259.5938	-10249.6584	-10204.1613	-10117.7517	-10122.5881	-10134.8104	-10240.8172	-10286.5222	-10287.6712	-10222.1063	-10167.9649	-10147.8424	-10205.8026	-10315.2999	-10319.2062	-10321.2852	-10320.3442	-10325.8918	-10334.5470	-10289.2140	-10191.0745	-10182.8789	-10190.1663	-10221.0230	-10333.8139	-10211.7332	-10198.9638	-10217.3793	-10335.4333	-10367.9969	-10374.7263	-10376.5974	-10379.9128	-10382.8453	-10385.1541	-10390.3297	-10391.4676	-10327.3799	-10256.0923	-10246.2335	-10252.5362	-10255.5015	-10262.6904	-10347.8744	-10425.8805	-10429.1740	-10433.0366	-10437.0742	-10440.3897	-10442.2389	-10447.8631	-10452.8308	-10454.2204	-10458.3456	-10459.4507	-10336.4400	-10308.4283	-10307.2684	-10320.5849	-10381.8277	-10475.4590	-10490.0776
-9871.8834	-9876.3477	-10007.1274	-10025.8055	-10027.7313	-10033.3993	-10036.1567	-10042.7876	-10044.4180	-10049.4075	-10051.9789	-10055.3163	-10032.7975	-9997.4546	-9904.4360	-9897.4769	-9901.9631	-9962.6260	-10048.8933	-10078.2071	-10085.3085	-10087.3218	-10091.2828	-10094.7624	-10099.3472	-10102.6954	-10106.1750	-10108.7902	-10112.4120	-10054.6160	-9969.0599	-9974.5419	-9972.7693	-9972.6051	-9997.5312	-10042.4156	-10106.7002	-10146.1026	-10148.7506	-10154.4295	-10157.6246	-10160.6665	-10166.7175	-10170.4378	-10170.2955	-10048.1930	-10022.4572	-10047.3067	-10106.8862	-10051.1254	-10051.1692	-10048.3462	-10091.2938	-10161.1480	-10208.5928	-10217.1386	-10221.1434	-10222.3032	-10228.7262	-10231.3851	-10172.2761	-10085.8228	-10095.6816	-10117.3797	-10236.2434	-10255.5343	-10255.4358	-10143.3562	-10110.9457	-10113.3858	-10153.9700	-10252.3392	-10279.7600	-10283.7758	-10287.3648	-10276.3789	-10222.1829	-10143.0607	-10157.3730	-10225.1919	-10320.5193	-10325.0821	-10325.7496	-10329.7434	-10278.0093	-10197.8586	-10177.1234	-10182.0473	-10218.9768	-10327.4018	-10350.8944	-10314.8731	-10201.7978	-10204.2597	-10229.5578	-10359.1667	-10372.5597	-10374.9232	-10377.6916	-10381.1712	-10383.4799	-10388.3273	-10317.0506	-10244.2202	-10244.1217	-10249.2754	-10332.5774	-10274.8470	-10253.3240	-10278.0859	-10400.4620	-10429.6227	-10430.7169	-10436.0785	-10437.4353	-10441.7574	-10446.6813	-10449.3731	-10453.3560	-10448.0819	-10323.7690	-10310.1899	-10305.3317	-10306.5572	-10314.7309	-10333.1026	-10442.8078	-10487.4077
-9841.3987	-9862.5169	-9902.4883	-10004.7201	-10030.1385	-10032.9288	-10036.7913	-10039.9426	-10042.6563	-10048.3680	-10050.5127	-10030.6857	-9956.1701	-9913.9666	-9897.9145	-9895.6386	-9903.3965	-9939.1880	-9985.0463	-10074.4539	-10082.6167	-10086.8732	-10090.0792	-10092.2567	-10096.7976	-10101.1088	-10104.8948	-10109.5233	-10111.7226	-10085.7680	-10004.8295	-9959.8576	-9960.5251	-9969.9243	-10012.0951	-10105.9999	-10140.2267	-10145.6540	-10146.9999	-10151.3220	-10154.9001	-10160.0866	-10163.7522	-10169.7266	-10172.9216	-10157.9529	-10022.4244	-10025.5429	-10030.0620	-10036.4521	-10041.2776	-10089.5212	-10130.5102	-10205.1132	-10210.4311	-10213.5605	-10218.7470	-10222.2047	-10226.9974	-10229.1858	-10234.1754	-10230.0721	-10131.7029	-10102.0061	-10172.0353	-10217.7185	-10137.4912	-10103.9975	-10106.6346	-10194.0398	-10201.1850	-10274.5735	-10277.4950	-10282.9770	-10285.2639	-10289.4875	-10293.2954	-10236.0465	-10146.6607	-10165.0105	-10280.0445	-10322.6858	-10304.8064	-10281.1825	-10192.8909	-10171.8603	-10180.1434	-10226.9755	-10283.1411	-10341.6703	-10348.4872	-10351.4634	-10315.7047	-10207.8816	-10227.3147	-10248.8377	-10355.1290	-10373.3366	-10375.7986	-10379.4314	-10378.6107	-10286.8505	-10239.7339	-10246.9995	-10256.7598	-10354.7351	-10403.3398	-10392.2992	-10352.8421	-10262.0120	-10276.8166	-10405.0577	-10430.4980	-10433.3867	-10435.9691	-10440.7179	-10444.2741	-10446.4297	-10382.6921	-10314.8294	-10301.8740	-10305.7037	-10343.2241	-10351.1571	-10333.1902	-10329.4589	-10383.4143	-10483.4905
-9928.0271	-9848.3798	-9861.4774	-9933.6732	-10027.7422	-10030.9264	-10034.8436	-10038.7500	-10041.1463	-10044.8228	-10047.8428	-9942.0877	-9903.5716	-9897.1267	-9896.4593	-9935.4459	-9925.7293	-9909.3818	-9955.3057	-10034.0886	-10077.2113	-10083.7000	-10087.8033	-10089.2039	-10094.6639	-10098.6469	-10101.6888	-10106.3938	-10085.7571	-9994.6206	-9958.2272	-9958.0741	-9959.7373	-9973.8744	-10028.5519	-10132.1734	-10138.8043	-10141.8133	-10144.6802	-10148.0503	-10153.8715	-10156.9025	-10162.0233	-10165.6780	-10169.8688	-10173.8517	-10080.3736	-10023.2560	-10020.1156	-10028.5410	-10053.0622	-10149.2539	-10204.4567	-10206.8640	-10208.9648	-10211.6128	-10218.2765	-10219.9069	-10223.5397	-10228.1900	-10232.7091	-10234.4489	-10166.7503	-10081.9164	-10093.8323	-10104.2383	-10097.7934	-10109.9500	-10130.2366	-10220.5415	-10254.1556	-10273.9717	-10277.2434	-10280.3728	-10284.3229	-10287.9447	-10290.5489	-10289.9033	-10156.5523	-10150.1950	-10162.7455	-10281.8500	-10212.7398	-10173.8736	-10170.8645	-10220.5963	-10274.2015	-10335.9257	-10340.9372	-10342.6441	-10346.6380	-10347.5352	-10353.3345	-10302.4648	-10204.5005	-10214.6985	-10286.4566	-10365.1301	-10375.4813	-10341.7031	-10286.5660	-10234.3833	-10232.5450	-10271.9255	-10352.1966	-10401.5781	-10404.1605	-10406.6771	-10410.2771	-10326.7125	-10266.0934	-10293.3282	-10407.9245	-10429.5461	-10434.0104	-10436.4943	-10421.7115	-10386.3030	-10306.6338	-10297.4643	-10301.8630	-10358.3132	-10464.3747	-10469.4846	-10384.6617	-10321.7119	-10343.7383	-10425.2568
-9980.1661	-9870.0341	-9851.8813	-9878.7112	-9945.9940	-10024.8645	-10034.4060	-10036.2114	-10041.4198	-10036.5178	-9981.6542	-9889.7408	-9895.0477	-9915.2030	-9975.0124	-10049.1996	-10007.6088	-9908.5502	-9923.0266	-9958.4461	-10045.3371	-10079.9687	-10084.5535	-10088.0330	-10091.0312	-10092.5302	-10100.5070	-10090.3747	-10028.9677	-9955.4042	-9955.5246	-9971.8173	-9962.7792	-9970.4605	-10007.3462	-10064.3216	-10135.9046	-10141.0255	-10144.6364	-10149.5822	-10152.8101	-10157.8435	-10161.6075	-10163.8507	-10168.9168	-10110.1798	-10040.1068	-10020.5423	-10020.1156	-10035.9269	-10073.7646	-10194.5104	-10202.2026	-10204.9929	-10208.4287	-10208.8445	-10214.1623	-10216.4930	-10220.6838	-10224.2509	-10229.2514	-10232.0088	-10232.9608	-10144.4723	-10079.2903	-10084.1705	-10091.1515	-10117.7627	-10248.8924	-10265.7323	-10267.8441	-10272.6039	-10275.0221	-10279.8804	-10283.1740	-10285.5046	-10289.4328	-10293.6783	-10293.8315	-10170.9192	-10158.1170	-10159.0033	-10163.8944	-10166.2032	-10173.9174	-10267.2642	-10301.6332	-10334.4157	-10337.8077	-10341.5390	-10344.6028	-10345.5438	-10350.7631	-10341.8235	-10265.6995	-10203.7455	-10229.4922	-10284.0274	-10350.4349	-10235.0398	-10226.1220	-10232.6216	-10260.1737	-10335.9257	-10398.4049	-10401.6328	-10403.2632	-10407.0163	-10399.4116	-10372.8661	-10272.1772	-10273.3480	-10328.8243	-10401.9064	-10432.6864	-10435.2250	-10403.1428	-10290.3848	-10294.4443	-10299.0618	-10372.3300	-10426.1759	-10463.8713	-10467.8433	-10470.0427	-10342.8192	-10321.7557	-10346.5723
-10003.8119	-9989.9811	-9856.2909	-9854.8466	-9886.3378	-9978.6342	-10022.8840	-10034.0339	-10035.8831	-9917.0741	-9888.5153	-9884.7841	-9914.5356	-9967.9219	-10056.9357	-10059.1022	-10061.0061	-9953.8614	-9921.7136	-9932.9839	-9997.4874	-10076.9159	-10084.0064	-10086.6106	-10089.1382	-10093.9855	-10033.0163	-10023.7156	-9953.2814	-9957.3519	-9973.7212	-10084.3237	-10103.2097	-10020.9910	-9987.7927	-10043.7943	-10134.2852	-10140.7191	-10142.8419	-10147.8971	-10150.2825	-10155.2393	-10158.6313	-10162.0999	-10156.8696	-10072.4844	-10019.6123	-10019.5247	-10058.3144	-10022.8730	-10035.8941	-10084.5097	-10196.2611	-10204.7959	-10207.4220	-10209.0524	-10211.8207	-10215.8583	-10219.2394	-10222.1500	-10228.0806	-10227.4569	-10141.2662	-10092.1582	-10079.4216	-10086.6981	-10095.8785	-10174.7599	-10257.4163	-10262.5919	-10265.6557	-10269.2775	-10271.2909	-10277.9765	-10279.2895	-10283.9946	-10287.2772	-10290.7568	-10292.9233	-10255.2607	-10143.0936	-10144.9756	-10152.8429	-10171.6742	-10296.1841	-10324.8633	-10328.3209	-10330.9799	-10335.3458	-10338.5408	-10343.1803	-10345.0186	-10349.8331	-10352.8968	-10342.8411	-10209.5557	-10203.7017	-10225.2247	-10220.5087	-10218.9002	-10238.2239	-10319.6986	-10383.4143	-10391.3911	-10394.2250	-10398.6456	-10400.4401	-10405.8455	-10407.4321	-10409.6315	-10316.3066	-10268.1943	-10282.1892	-10328.3866	-10402.4644	-10407.8698	-10294.1707	-10288.0979	-10321.5697	-10359.0682	-10455.5772	-10458.1267	-10463.1163	-10466.9351	-10470.7648	-10471.8372	-10376.4332	-10340.4776
-10001.8971	-10005.6721	-9953.5112	-9863.8628	-9858.8623	-9911.5155	-9986.9283	-10023.2122	-9933.5857	-9876.7854	-9878.6456	-9896.5030	-9939.7680	-10040.7305	-10056.4871	-10058.4457	-10061.1812	-10064.0261	-9964.9019	-9924.5585	-9940.1509	-10036.8242	-10083.4811	-10085.9759	-10088.3504	-10062.3520	-9975.3407	-9946.4864	-9949.1016	-10019.4810	-10108.6917	-10114.4800	-10117.7845	-10118.9553	-10067.7574	-10049.4513	-10104.1835	-10135.7405	-10140.6425	-10145.1725	-10149.7573	-10154.0903	-10156.9790	-10127.7418	-10045.7419	-10020.7831	-10019.2731	-10072.5938	-10151.9238	-10107.7507	-10035.8613	-10048.2477	-10147.0218	-10205.0804	-10206.9405	-10209.1180	-10211.0001	-10213.9435	-10218.0577	-10220.7494	-10214.9939	-10095.1126	-10079.9031	-10079.3341	-10076.9050	-10080.5487	-10089.0178	-10146.1355	-10198.0556	-10262.0339	-10266.3998	-10267.8222	-10271.5207	-10275.2300	-10278.8300	-10282.9989	-10285.9532	-10280.6573	-10286.8177	-10161.9249	-10141.7477	-10141.5288	-10152.7773	-10233.1468	-10294.2583	-10324.0207	-10327.5550	-10331.0455	-10333.3324	-10337.6545	-10342.0204	-10344.4933	-10347.9401	-10352.2950	-10353.7722	-10333.2887	-10202.6731	-10199.2373	-10206.9405	-10218.5173	-10301.0642	-10380.1426	-10385.2963	-10388.1850	-10391.4129	-10395.1223	-10398.5253	-10401.5672	-10404.1276	-10409.1172	-10395.3521	-10372.8005	-10265.8198	-10278.9284	-10290.9757	-10276.4665	-10281.9703	-10321.2743	-10403.9416	-10447.2613	-10455.4678	-10455.7742	-10461.1468	-10464.5060	-10466.5303	-10471.3557	-10421.4052	-10344.5152
-10002.6739	-10005.5845	-10008.2653	-9961.5974	-9853.5116	-9861.8823	-9899.0525	-9873.4043	-9874.4000	-9878.7331	-9907.7405	-9986.2280	-10041.9450	-10048.2696	-10052.4057	-10055.2397	-10060.1745	-10061.3563	-10038.9250	-9965.8210	-9918.8139	-9965.3068	-10056.5418	-10074.0819	-10061.4438	-9980.7241	-9955.0540	-9952.9203	-10009.0422	-10089.3680	-10112.3135	-10114.4363	-10116.9858	-10120.3888	-10102.8705	-10055.5789	-10093.1430	-10132.1734	-10141.1240	-10145.4899	-10148.6193	-10153.9700	-10106.0984	-10052.1868	-10025.9149	-10037.5244	-10116.6137	-10168.9825	-10180.0887	-10179.1586	-10056.8591	-10039.5816	-10051.4865	-10150.5889	-10203.8111	-10206.7545	-10210.2232	-10213.1119	-10217.0291	-10189.6740	-10100.9338	-10075.4278	-10077.6818	-10086.6981	-10189.9694	-10183.4479	-10114.9943	-10108.4510	-10128.9126	-10249.2864	-10264.3536	-10267.9207	-10270.6891	-10272.8446	-10276.9042	-10279.9898	-10252.4049	-10237.3157	-10181.2486	-10139.9094	-10135.2809	-10149.8558	-10149.1664	-10192.2235	-10220.6838	-10316.9850	-10324.8085	-10327.8504	-10331.4066	-10334.0655	-10338.9566	-10341.1888	-10344.8654	-10348.6513	-10351.9558	-10265.3493	-10196.5128	-10197.4100	-10203.8221	-10236.0027	-10317.2695	-10380.2958	-10382.8453	-10387.8458	-10389.9248	-10393.7983	-10397.2998	-10401.1076	-10402.9678	-10406.8084	-10409.0953	-10412.6624	-10297.2236	-10261.4211	-10263.3141	-10272.8118	-10305.7803	-10404.2152	-10418.2976	-10448.6181	-10451.6928	-10455.8399	-10458.5207	-10461.5407	-10466.1363	-10468.5874	-10473.3253	-10435.6627
-9998.8661	-10003.3742	-10005.0921	-10009.8848	-9933.8921	-9852.4940	-9852.5378	-9862.3090	-9865.0664	-9895.2666	-10002.1487	-10034.5154	-10038.4108	-10043.1377	-10049.2653	-10052.8215	-10056.5637	-10059.1569	-10063.9386	-10054.2111	-9925.8715	-9916.1988	-9947.0773	-9964.9895	-9949.1125	-9953.1064	-9964.9676	-10051.1692	-10101.3933	-10105.2340	-10109.8078	-10111.8758	-10114.5129	-10118.3426	-10122.3474	-10124.2294	-10105.2012	-10115.1037	-10117.1280	-10142.6121	-10145.0303	-10118.1456	-10059.3320	-10027.9501	-10047.1206	-10100.9994	-10170.3721	-10173.7314	-10177.5392	-10178.9617	-10147.4157	-10072.9439	-10038.3779	-10068.9501	-10170.7661	-10204.3473	-10209.6979	-10210.8359	-10164.0039	-10098.6031	-10069.0157	-10074.3226	-10096.8414	-10189.7177	-10240.8172	-10239.7011	-10165.1090	-10095.2220	-10101.7763	-10183.9513	-10240.0950	-10265.9949	-10267.5596	-10270.9079	-10274.7704	-10277.4075	-10188.2187	-10144.8005	-10133.5740	-10144.8443	-10219.1957	-10209.7198	-10188.8971	-10156.3663	-10176.1386	-10285.4609	-10320.7819	-10326.3842	-10329.2291	-10332.2492	-10335.7506	-10339.8648	-10343.3663	-10337.6764	-10226.6034	-10197.4866	-10197.3662	-10199.0404	-10214.5781	-10221.1871	-10271.4988	-10359.5715	-10380.7225	-10385.2635	-10388.5023	-10391.8178	-10393.8858	-10397.3764	-10400.4292	-10402.2346	-10406.3707	-10367.0449	-10269.6058	-10255.3373	-10257.2413	-10268.6757	-10346.0362	-10438.2450	-10441.9106	-10445.5434	-10450.3579	-10453.7499	-10457.9626	-10462.5802	-10465.2063	-10466.6287	-10469.7801	-10473.3909
-9995.5397	-10001.0873	-10003.4071	-10006.0441	-9887.3992	-9857.0678	-9846.4868	-9856.1158	-9890.5068	-9962.1883	-10021.3630	-10034.7014	-10036.9773	-10040.7414	-10046.1468	-10047.9085	-10053.5655	-10056.1807	-10060.3058	-10063.0414	-10040.5882	-9917.0632	-9920.9038	-9926.9657	-9937.5467	-9943.6415	-10030.4887	-10091.0421	-10099.3362	-10103.5051	-10106.7112	-10110.6394	-10113.9001	-10118.6052	-10119.6994	-10122.0629	-10123.9012	-10089.1273	-10071.4120	-10119.8964	-10095.9661	-10030.3246	-10039.1110	-10066.4772	-10158.7626	-10163.3692	-10166.1923	-10171.7946	-10174.4754	-10178.1301	-10182.9446	-10129.3065	-10038.9141	-10045.1292	-10106.5361	-10173.6001	-10205.7369	-10163.0738	-10068.3045	-10062.8772	-10068.6765	-10098.1982	-10224.5682	-10233.7814	-10238.5084	-10242.0974	-10245.3582	-10217.7185	-10106.0875	-10121.4283	-10187.9451	-10262.8436	-10266.5201	-10269.6386	-10270.8641	-10225.5858	-10140.3909	-10128.9126	-10157.7012	-10196.1954	-10279.2786	-10299.2041	-10256.4534	-10153.6527	-10160.7759	-10221.9750	-10310.2446	-10323.2329	-10328.3100	-10329.5793	-10334.9737	-10336.4071	-10274.9674	-10255.6218	-10193.8319	-10194.4009	-10205.4634	-10266.8593	-10294.7726	-10209.4463	-10219.9944	-10286.4675	-10350.9929	-10382.7140	-10386.4124	-10388.6008	-10392.8792	-10396.2274	-10398.8535	-10388.0318	-10359.9545	-10270.8313	-10259.2874	-10263.8940	-10251.1356	-10263.0953	-10341.7031	-10398.1533	-10438.4091	-10444.0881	-10446.6157	-10449.3731	-10453.8703	-10457.2623	-10463.3680	-10465.3266	-10467.3619	-10469.8785
-9992.7276	-9999.7415	-10001.8205	-9954.5288	-9859.9456	-9848.6424	-9848.3251	-9853.2271	-9891.4806	-9959.3652	-10025.4553	-10031.6923	-10034.7342	-10037.7323	-10042.6235	-10048.2586	-10051.4209	-10051.7163	-10056.9685	-10061.2359	-10050.6987	-9947.0116	-9919.0327	-9922.8187	-9977.2446	-10019.8421	-10089.8385	-10094.1059	-10097.0931	-10099.2596	-10103.4833	-10107.8273	-10110.2126	-10114.6113	-10116.2527	-10122.2927	-10125.2689	-10041.0478	-9993.0449	-10030.1714	-10019.1308	-10033.3227	-10078.3821	-10150.7202	-10164.6713	-10163.1723	-10168.2056	-10168.5558	-10171.7837	-10176.1167	-10181.5112	-10184.6515	-10112.0290	-10044.0678	-10042.7110	-10104.1507	-10154.7906	-10065.4705	-10060.6341	-10068.6218	-10127.0634	-10210.8140	-10227.8837	-10232.3480	-10236.1449	-10239.4932	-10242.0537	-10235.3790	-10172.3745	-10100.8134	-10111.2631	-10193.1207	-10261.7713	-10266.8812	-10161.1042	-10132.7971	-10122.8179	-10135.3685	-10245.5004	-10280.8761	-10292.9015	-10297.6503	-10300.5719	-10219.6662	-10211.5253	-10160.4805	-10252.3939	-10300.9767	-10325.6401	-10328.2115	-10329.9732	-10299.9044	-10202.7935	-10190.5056	-10191.5341	-10245.1065	-10322.0840	-10349.6799	-10320.3989	-10230.0283	-10212.7180	-10237.1078	-10322.2700	-10366.5307	-10383.2720	-10386.1717	-10387.5066	-10391.8069	-10396.3259	-10348.0167	-10260.7099	-10249.0128	-10266.3122	-10305.1347	-10346.4520	-10267.5049	-10278.0202	-10339.8430	-10429.6555	-10441.0571	-10446.2984	-10448.8916	-10451.8898	-10455.8617	-10460.4027	-10463.4446	-10453.7499	-10359.3855
-9993.3185	-9992.8480	-9894.3474	-9883.1756	-9869.6512	-9857.7462	-9930.1280	-9860.8428	-9866.3138	-9881.0747	-10014.9072	-10030.7513	-10034.0011	-10036.9883	-10041.1900	-10045.6653	-10048.0398	-10051.7273	-10054.0907	-10044.4727	-9942.4050	-9917.3586	-9919.1203	-9928.5852	-9962.4071	-10007.5541	-10087.6391	-10090.4622	-10095.4627	-10097.4542	-10100.5289	-10105.1793	-10109.6655	-10113.6047	-10116.9311	-10119.5353	-10122.2927	-10057.2968	-9999.8618	-9981.0962	-9986.7970	-10035.8831	-10116.7450	-10159.5176	-10164.6166	-10166.5534	-10170.3721	-10169.1357	-10172.3745	-10179.2899	-10181.3908	-10182.7039	-10185.0126	-10140.0298	-10042.5359	-10040.7086	-10042.8970	-10049.8233	-10059.6384	-10133.5083	-10216.4164	-10220.4759	-10225.9907	-10229.4812	-10233.3656	-10238.9133	-10241.0579	-10244.6141	-10246.4195	-10181.0407	-10102.0280	-10112.5214	-10235.7729	-10180.6139	-10124.5577	-10118.5505	-10172.5496	-10245.2487	-10285.3514	-10288.8967	-10290.7130	-10294.5975	-10299.6199	-10293.2626	-10254.1228	-10156.9243	-10162.9644	-10225.2357	-10322.9703	-10327.3252	-10320.0378	-10210.4967	-10182.7367	-10187.4746	-10243.9576	-10322.1824	-10352.5686	-10355.1619	-10358.9806	-10348.0604	-10226.9098	-10212.8821	-10249.9210	-10319.2500	-10381.9043	-10384.2787	-10383.9942	-10388.8525	-10314.2713	-10246.9448	-10245.8177	-10255.5452	-10302.7931	-10407.4978	-10417.8052	-10370.0321	-10268.0958	-10281.9047	-10335.1050	-10430.7059	-10444.7884	-10447.5239	-10449.9640	-10453.3560	-10457.6891	-10455.7523	-10354.0567	-10311.7547
-9987.4973	-9931.2441	-9844.3312	-9844.1343	-9899.3808	-9957.6801	-10006.3943	-9961.8162	-9859.4422	-9868.6445	-9937.3388	-9995.8133	-10032.1519	-10037.0758	-10039.7895	-10044.0459	-10046.6501	-10049.9765	-9985.4621	-9918.8905	-9909.7648	-9914.4043	-9968.3049	-9947.8542	-9934.6580	-9983.7332	-10050.8300	-10088.4598	-10092.5740	-10096.1302	-10099.7739	-10103.3301	-10107.3896	-10111.5913	-10113.3202	-10113.7360	-10078.7761	-9985.3089	-9978.1199	-9978.2731	-9988.3836	-10024.3502	-10114.0314	-10157.9638	-10163.0847	-10166.3564	-10169.4968	-10173.2608	-10177.4079	-10178.2176	-10179.7276	-10181.0188	-10183.1197	-10170.4487	-10058.0299	-10030.0620	-10033.4978	-10076.1281	-10107.5865	-10207.4986	-10214.5562	-10218.3094	-10221.8655	-10225.3779	-10232.3371	-10232.6106	-10238.0707	-10243.7059	-10250.1398	-10245.8068	-10114.1408	-10108.1336	-10110.5847	-10104.6431	-10108.5494	-10158.6641	-10228.5293	-10279.0488	-10284.2244	-10287.2444	-10289.0280	-10293.9191	-10295.8777	-10299.2369	-10290.7459	-10197.6179	-10154.5171	-10165.1965	-10219.8303	-10202.1807	-10180.3951	-10175.2304	-10184.3780	-10268.5444	-10284.7934	-10346.5833	-10351.1352	-10353.2908	-10356.4749	-10359.9654	-10337.8406	-10226.4393	-10217.7732	-10274.1905	-10373.2491	-10382.8015	-10382.1122	-10379.2235	-10257.9087	-10240.5984	-10252.5799	-10342.7207	-10395.2755	-10419.4794	-10418.2538	-10401.3593	-10365.6553	-10277.0245	-10282.6159	-10375.4266	-10427.5546	-10445.2370	-10447.7537	-10451.1676	-10441.0133	-10322.7186	-10312.6300	-10308.3736
-9911.3733	-9836.4858	-9838.7289	-9863.4142	-9980.4615	-9986.6219	-10009.8301	-10007.5760	-9958.9823	-9867.1892	-9876.4681	-9924.0114	-9998.8661	-10036.8132	-10037.9074	-10041.1463	-10042.7766	-9968.2830	-9928.9463	-9902.4774	-9909.6663	-9962.2430	-10061.2797	-10051.8257	-9949.8894	-9938.4878	-10029.2960	-10050.4908	-10091.5892	-10095.9004	-10097.8153	-10101.2401	-10105.8139	-10109.0199	-10105.2121	-10066.5538	-9969.6945	-9977.5509	-9986.7423	-10025.8821	-9984.8493	-9994.1610	-10050.4033	-10154.9657	-10160.3164	-10166.7394	-10168.6542	-10172.7903	-10175.6572	-10178.4364	-10179.3994	-10181.1720	-10148.9804	-10062.6146	-10033.0163	-10029.5696	-10035.1062	-10065.8863	-10154.1560	-10211.2517	-10216.2304	-10218.1671	-10223.0692	-10225.6187	-10230.0502	-10233.3656	-10234.4161	-10242.2725	-10243.1588	-10235.9589	-10123.0149	-10095.6268	-10099.7958	-10106.3829	-10139.2310	-10234.8975	-10273.9717	-10278.2610	-10281.9156	-10286.1611	-10287.2006	-10292.6389	-10295.7683	-10297.8363	-10301.9943	-10304.5219	-10192.6174	-10151.6284	-10179.8261	-10167.3959	-10172.6043	-10178.3817	-10249.6256	-10302.4429	-10343.8149	-10345.1170	-10349.3844	-10351.6932	-10355.8074	-10359.9435	-10361.2566	-10363.5872	-10239.1321	-10236.8562	-10278.9831	-10355.2384	-10353.8050	-10279.6287	-10247.6122	-10248.2250	-10351.9339	-10408.4060	-10416.5688	-10415.9232	-10415.3980	-10418.8885	-10418.9651	-10313.4944	-10275.1862	-10282.3642	-10365.8960	-10434.0323	-10443.9349	-10348.9686	-10319.3266	-10300.7250	-10305.6271	-10359.0025
-9831.8463	-9836.5405	-9892.6624	-9944.8889	-10008.0027	-10012.4233	-10013.4409	-10014.4695	-10016.4719	-9936.9887	-9867.3971	-9884.2370	-9975.3844	-10034.0558	-10036.7257	-10039.5487	-9941.6062	-9903.7686	-9899.2167	-9916.0674	-9957.7239	-10062.1988	-10067.2322	-10068.0857	-10053.3139	-9947.7229	-9947.7885	-9982.6937	-10071.0181	-10093.0336	-10099.7411	-10101.5137	-10104.6212	-10074.7165	-10062.1879	-9962.4947	-9966.7074	-9990.2109	-10104.5009	-10118.0909	-10081.2708	-9994.0625	-9989.8280	-10056.3448	-10149.6260	-10163.4677	-10165.8202	-10168.7855	-10172.2542	-10178.1738	-10178.7538	-10161.5419	-10048.0398	-10029.9744	-10030.0182	-10053.4561	-10054.4737	-10038.0278	-10106.9191	-10159.5614	-10215.6176	-10216.7775	-10222.4892	-10224.5245	-10228.3651	-10227.7524	-10231.0897	-10238.1911	-10220.2899	-10204.9491	-10097.0165	-10095.8019	-10101.6340	-10120.3012	-10145.1069	-10264.4630	-10272.8665	-10276.4118	-10279.2239	-10282.2986	-10285.6250	-10290.6912	-10293.2407	-10297.5956	-10300.4624	-10304.3250	-10225.6515	-10156.0271	-10150.2168	-10157.3073	-10181.5549	-10207.0937	-10308.5705	-10335.2473	-10342.3049	-10344.0994	-10347.0538	-10350.6865	-10353.9145	-10358.1600	-10360.7861	-10363.7842	-10308.2641	-10309.6209	-10296.2716	-10267.1876	-10239.4385	-10231.2429	-10237.0422	-10332.0850	-10387.0799	-10405.4407	-10409.5002	-10413.1877	-10414.9712	-10418.6915	-10422.7510	-10424.7097	-10313.3194	-10277.6701	-10321.6135	-10399.5648	-10399.4444	-10318.9108	-10294.5647	-10301.3597	-10330.6626	-10421.5693
-9835.5447	-9887.9026	-9966.0837	-10000.1244	-10005.9237	-10007.9590	-10011.3510	-10016.7345	-10017.9163	-10017.2816	-9879.8164	-9866.4889	-9921.0133	-9947.5916	-10025.3350	-9946.6505	-9910.6839	-9892.5529	-9906.3947	-10008.9875	-10049.0136	-10062.1988	-10066.2364	-10067.7574	-10072.2983	-10038.6077	-9955.4151	-9963.3481	-10003.6259	-10089.8932	-10097.4432	-10100.9228	-10067.2650	-10015.3777	-9961.9694	-9960.3610	-9986.6000	-10092.8804	-10127.4245	-10130.4117	-10126.0130	-10054.9005	-9984.5210	-10012.2045	-10065.8863	-10154.9548	-10165.1856	-10166.8488	-10170.6129	-10177.7909	-10125.1376	-10035.6534	-10025.2803	-10025.9806	-10091.9065	-10170.1205	-10196.9067	-10079.7171	-10054.2330	-10099.7520	-10177.7690	-10216.1866	-10218.6923	-10223.8242	-10226.3080	-10226.7457	-10228.2010	-10231.5602	-10147.9628	-10096.9071	-10089.5868	-10096.5897	-10140.0079	-10100.6055	-10112.3354	-10207.1375	-10255.7422	-10274.3328	-10277.7686	-10280.9090	-10283.5898	-10288.4043	-10291.0413	-10295.1446	-10297.6831	-10281.0293	-10197.1583	-10148.5536	-10150.0418	-10154.8125	-10208.9429	-10290.1441	-10331.2206	-10334.7111	-10339.3287	-10341.3311	-10345.4781	-10348.7170	-10351.8573	-10354.3959	-10358.1709	-10360.9830	-10363.3246	-10355.0415	-10326.1544	-10257.0662	-10230.4003	-10243.4761	-10340.7074	-10389.1698	-10399.8055	-10403.3070	-10406.7209	-10410.3974	-10410.2552	-10418.4180	-10422.3790	-10425.1364	-10421.6349	-10288.1307	-10274.4969	-10299.6308	-10290.8662	-10289.7720	-10297.5300	-10331.1440	-10454.5487	-10461.1905
-9843.7294	-9966.6745	-9991.4255	-9997.7828	-9999.0849	-10004.7529	-10008.3966	-10010.2896	-10013.4300	-10013.9333	-9991.7647	-9864.9461	-9866.2701	-9924.2302	-9883.6570	-9884.5762	-9889.4673	-9895.3103	-9998.7457	-10041.0697	-10057.9971	-10060.4371	-10064.8687	-10066.4991	-10069.6941	-10072.2655	-10042.2952	-9951.6839	-9962.3524	-9971.6532	-10083.0763	-10089.6306	-9968.1517	-9952.3732	-9956.9470	-9975.7674	-10103.9319	-10116.4168	-10125.6300	-10129.2300	-10132.7971	-10136.8128	-10058.9271	-9992.4978	-10035.7737	-10121.8769	-10165.3169	-10168.1400	-10164.1789	-10145.4352	-10035.9707	-10028.6395	-10027.1295	-10046.1249	-10174.8474	-10191.4575	-10191.3153	-10150.5123	-10082.2885	-10050.6659	-10118.2769	-10172.8013	-10219.4254	-10221.4169	-10226.3408	-10226.0235	-10227.2381	-10198.2854	-10087.7267	-10088.9741	-10111.2302	-10178.9507	-10251.9672	-10190.8119	-10103.4942	-10161.7170	-10171.2147	-10272.6367	-10277.0245	-10280.4275	-10283.4585	-10286.5113	-10290.6583	-10294.2036	-10285.4171	-10186.7962	-10151.6721	-10145.9385	-10145.5446	-10147.7330	-10160.4914	-10218.1452	-10315.3437	-10332.8400	-10336.6260	-10338.9238	-10342.8848	-10345.4781	-10349.3954	-10352.2622	-10355.0962	-10359.1119	-10365.1738	-10380.0988	-10305.5286	-10255.2060	-10244.4719	-10276.0944	-10375.4266	-10390.9096	-10397.2013	-10401.5453	-10404.8607	-10403.2085	-10409.5330	-10415.3214	-10419.8295	-10430.7935	-10426.4604	-10342.5347	-10272.0459	-10272.1444	-10275.7662	-10288.1526	-10345.3468	-10450.1937	-10456.7809	-10461.5297
-9896.3498	-9986.0201	-9991.0972	-9994.6862	-9997.3452	-10002.1487	-10005.3219	-10008.2653	-10007.6964	-10009.3267	-10012.0404	-10014.6446	-9923.4533	-9861.5431	-9864.8257	-9880.2103	-9915.0389	-9992.7385	-10017.1722	-10047.6896	-10052.1102	-10055.6883	-10059.6165	-10063.1180	-10067.1775	-10068.7312	-10071.2589	-9991.8632	-9923.4752	-9934.0562	-9971.3906	-9956.0826	-9947.0992	-9949.4189	-9991.7538	-10093.7667	-10115.9353	-10118.9663	-10122.3693	-10127.5230	-10130.2366	-10135.8061	-10128.5844	-10016.7564	-9995.1349	-10045.3371	-10134.4821	-10136.5830	-10121.4720	-10022.9387	-10034.6686	-10040.6320	-10155.9505	-10172.6043	-10184.8157	-10188.3937	-10190.9104	-10196.2611	-10100.5070	-10053.9157	-10075.2637	-10120.0496	-10196.8957	-10219.7647	-10223.1458	-10223.7147	-10147.4704	-10080.4174	-10083.2404	-10090.2981	-10196.8301	-10198.7996	-10252.6237	-10254.2431	-10134.2633	-10107.2036	-10139.0778	-10241.7801	-10276.6415	-10279.9789	-10280.8652	-10285.5593	-10288.0322	-10226.7785	-10158.8501	-10144.8115	-10147.2953	-10206.1418	-10240.5327	-10280.0008	-10158.1608	-10171.6414	-10245.3582	-10329.7981	-10335.0832	-10337.8077	-10341.0028	-10344.6465	-10347.4477	-10350.4349	-10352.8202	-10381.4338	-10390.9862	-10375.9299	-10348.6404	-10283.9946	-10246.0694	-10252.9191	-10312.0939	-10391.6208	-10393.4263	-10398.4596	-10401.8626	-10403.4820	-10406.4473	-10412.8703	-10416.7001	-10421.7772	-10406.8084	-10323.3970	-10265.8089	-10267.6472	-10273.7747	-10307.3122	-10442.5452	-10450.5767	-10453.6514	-10457.8423
-9916.7459	-9984.0177	-9986.3155	-9993.2528	-9996.1087	-9998.8114	-10004.0417	-10007.7401	-10011.8543	-10014.7212	-10013.0251	-9998.3081	-9892.1153	-9856.4222	-9861.6635	-9880.5714	-9961.4770	-10036.7257	-10044.7681	-10045.6982	-10050.2938	-10053.0075	-10056.9357	-10060.4262	-10065.1641	-10067.1665	-10070.9962	-9999.6430	-9973.6556	-9923.0157	-9925.9810	-9932.5134	-9944.1339	-9963.7092	-10097.8590	-10099.6098	-10112.3244	-10116.5809	-10120.0605	-10124.2185	-10127.9278	-10130.2257	-10134.6353	-10128.9455	-10005.3110	-9995.8899	-10011.2635	-10066.4115	-10015.2464	-10010.9462	-10026.3854	-10086.1291	-10173.7532	-10178.5896	-10184.2467	-10185.5379	-10191.0089	-10193.4927	-10189.8053	-10113.1232	-10046.6830	-10062.6474	-10126.3194	-10217.8607	-10219.0753	-10125.7285	-10074.7713	-10077.7147	-10141.7586	-10210.9672	-10249.6912	-10253.8711	-10251.2012	-10253.3787	-10241.6597	-10113.2764	-10111.1646	-10141.8024	-10261.4868	-10275.0440	-10277.6810	-10282.9879	-10206.2074	-10148.2254	-10141.7914	-10143.6844	-10197.1912	-10258.5324	-10283.5898	-10313.9650	-10217.9154	-10165.7765	-10192.5408	-10260.8631	-10331.5598	-10336.9324	-10339.7335	-10343.4538	-10346.6052	-10348.8155	-10366.7167	-10375.5469	-10372.5926	-10366.8152	-10365.0644	-10348.4653	-10307.8264	-10244.4171	-10279.1254	-10314.7528	-10391.9710	-10396.9715	-10399.7180	-10401.8079	-10406.0315	-10410.9992	-10414.8399	-10416.2624	-10295.9324	-10267.0016	-10266.8812	-10264.3317	-10276.9589	-10314.7528	-10329.4589	-10442.8407	-10453.3888	-10455.2490
-9878.3392	-9956.5093	-9986.6329	-9990.2438	-9993.4826	-9998.4175	-10001.4922	-10006.6678	-10009.2173	-10013.3644	-9983.7989	-9901.4270	-9862.2762	-9857.1882	-9859.0045	-9875.3629	-9959.5294	-10026.7246	-10041.8137	-10044.9869	-10048.1601	-10051.2130	-10054.5941	-10059.8353	-10063.4681	-10066.5319	-10069.7598	-10072.5610	-9983.0439	-9919.6346	-9920.9695	-9926.9657	-9980.1114	-10064.4419	-10102.4219	-10108.5166	-10110.5737	-10115.3335	-10118.6052	-10122.1067	-10124.7546	-10126.9868	-10133.6834	-10133.7381	-10083.7219	-9987.1800	-9983.7442	-9990.6814	-10004.9827	-10036.3318	-10114.0642	-10164.0695	-10173.5672	-10176.6091	-10181.6096	-10183.9513	-10188.1092	-10191.5013	-10194.8933	-10197.7930	-10103.4614	-10048.2586	-10084.7942	-10108.4619	-10093.3947	-10069.9239	-10077.1895	-10102.5204	-10210.9891	-10247.8311	-10248.9143	-10253.1708	-10251.2231	-10250.4243	-10253.4006	-10189.9584	-10105.9671	-10126.0677	-10175.3180	-10272.2209	-10272.5054	-10227.8180	-10138.2572	-10138.0493	-10141.0146	-10217.6857	-10269.8137	-10313.0239	-10317.3789	-10317.4883	-10316.1643	-10183.1962	-10172.8341	-10202.2683	-10283.5898	-10327.4346	-10339.9414	-10342.7207	-10331.1221	-10334.9409	-10348.5638	-10350.1285	-10360.7861	-10360.2280	-10364.8675	-10369.1568	-10372.6363	-10334.1859	-10244.6469	-10273.9389	-10365.5240	-10395.1442	-10398.4049	-10401.8298	-10405.3750	-10410.6491	-10353.7941	-10301.8411	-10265.5572	-10266.2028	-10308.5705	-10347.3711	-10332.0631	-10279.0926	-10312.9255	-10393.8749	-10451.2223	-10454.8988
-9900.9236	-9945.9174	-9983.6019	-9988.8541	-9991.8960	-9996.8637	-9997.8376	-10004.0855	-9987.4973	-9976.4896	-9859.4860	-9856.9474	-9865.4057	-9892.4545	-9915.1374	-9865.9856	-9882.7926	-9957.9428	-10025.7179	-10044.5055	-10047.6349	-10048.5869	-10050.4251	-10054.2220	-10061.7174	-10064.7702	-10062.1332	-9968.6113	-9924.5147	-9920.5975	-9922.8625	-9931.7803	-9956.2139	-10041.6824	-10101.8419	-10104.4899	-10108.4072	-10113.9767	-10116.7669	-10122.2270	-10123.7480	-10125.7175	-10130.8494	-10137.4474	-10062.4286	-10013.0689	-9980.3302	-9983.6129	-9995.8789	-10112.4448	-10165.6999	-10169.2123	-10172.8560	-10173.6657	-10178.8522	-10182.5944	-10186.1287	-10189.5755	-10193.1973	-10196.8520	-10140.4456	-10100.7587	-10059.0803	-10054.6269	-10055.6883	-10071.3902	-10097.7606	-10225.1482	-10239.6464	-10244.7563	-10246.7916	-10251.2778	-10251.2122	-10253.1051	-10252.7769	-10254.6370	-10189.8381	-10107.7725	-10113.8016	-10224.6229	-10188.8424	-10129.3284	-10131.4402	-10138.3666	-10184.5968	-10300.3968	-10307.9249	-10309.2380	-10313.1005	-10312.4659	-10312.0173	-10312.3893	-10191.3481	-10182.8242	-10201.1631	-10293.7221	-10319.7095	-10311.9844	-10278.6549	-10273.0525	-10313.6586	-10348.1918	-10355.5120	-10360.7970	-10363.4012	-10367.8875	-10370.7762	-10368.2595	-10281.5108	-10235.8276	-10319.3922	-10386.3905	-10395.3521	-10400.2432	-10403.5149	-10371.1154	-10281.3138	-10260.8521	-10265.5901	-10274.9236	-10404.5762	-10436.4724	-10421.7662	-10315.8470	-10284.1259	-10359.2870	-10368.2376	-10452.6338
-9912.9161	-9894.3693	-9973.5571	-9984.4882	-9988.2523	-9993.8984	-9996.2838	-9999.4351	-9973.9291	-9864.2020	-9851.5530	-9867.2002	-9890.7365	-10010.2349	-9999.2163	-9875.7350	-9873.0213	-9892.6842	-9991.5896	-10039.7895	-10045.7529	-10048.2367	-10051.7163	-10054.2220	-10059.5727	-10062.4943	-9990.8456	-9916.4395	-9918.2230	-9928.2460	-9975.6033	-9924.8868	-9956.3671	-9970.9091	-10071.8497	-10096.9180	-10108.1008	-10112.1165	-10115.1366	-10118.5067	-10122.1614	-10127.4902	-10131.0901	-10077.1785	-10015.4433	-9982.1904	-9979.3783	-9983.1971	-10009.8519	-10026.8669	-10151.1797	-10167.6913	-10171.1490	-10174.3441	-10178.0097	-10180.7015	-10186.1834	-10188.3171	-10192.5955	-10193.9304	-10198.5808	-10142.4589	-10061.6845	-10051.3990	-10050.9941	-10135.9265	-10157.3620	-10235.6744	-10237.6112	-10240.1060	-10243.8263	-10250.9824	-10249.4724	-10251.8468	-10255.1951	-10254.1775	-10256.0486	-10205.0476	-10103.9538	-10108.9652	-10119.4477	-10123.5401	-10135.3685	-10226.7676	-10281.9703	-10303.1432	-10305.3426	-10302.0053	-10307.6842	-10310.1243	-10308.8550	-10313.0130	-10304.0077	-10209.8074	-10204.7521	-10203.6579	-10274.9455	-10213.0134	-10195.7687	-10235.0726	-10307.7499	-10351.9230	-10354.9102	-10359.4183	-10360.9830	-10365.5240	-10369.4741	-10365.7319	-10311.1528	-10263.1500	-10237.5127	-10354.9868	-10393.5904	-10399.1380	-10331.0127	-10274.4203	-10257.3397	-10259.6266	-10348.1480	-10354.5929	-10433.9338	-10435.4767	-10437.1508	-10438.7483	-10314.3698	-10303.6575	-10335.2145	-10420.2781
-9932.8416	-9920.0722	-9890.6490	-9983.6347	-9988.8213	-9991.8960	-9994.2048	-9970.2854	-9886.9287	-9872.8025	-9902.1601	-9904.2610	-10007.0617	-10019.7983	-10026.4073	-10024.5909	-9953.1939	-9875.2426	-9902.2914	-9989.9593	-10041.4417	-10046.2890	-10049.7686	-10050.9832	-10046.5298	-9964.2344	-9916.8224	-9913.3100	-9946.6834	-9956.4109	-10071.4558	-10072.4844	-9951.3009	-9947.5806	-10028.2565	-10103.1331	-10106.9409	-10111.0989	-10114.8521	-10118.9882	-10120.9359	-10126.4616	-10062.0566	-9990.0687	-9982.0919	-9985.6262	-9999.2272	-10072.3093	-10002.4551	-10033.5306	-10101.5684	-10164.8245	-10168.1290	-10170.8098	-10174.1034	-10178.9507	-10182.0911	-10184.5968	-10188.7767	-10191.3481	-10174.6177	-10086.7419	-10051.0051	-10053.8062	-10053.1935	-10120.6295	-10214.2498	-10233.2672	-10236.1340	-10239.9200	-10243.8591	-10247.9186	-10249.3082	-10254.3416	-10256.2346	-10254.4291	-10254.7683	-10201.3163	-10124.8531	-10103.2316	-10108.6479	-10133.4755	-10229.1748	-10292.9343	-10295.4728	-10299.8606	-10301.8411	-10300.1998	-10302.4211	-10306.1633	-10307.3122	-10310.4635	-10315.7704	-10292.1246	-10205.9339	-10180.4388	-10206.9187	-10182.2552	-10192.8472	-10208.9867	-10341.6156	-10351.4415	-10353.7613	-10356.3764	-10359.7794	-10363.4888	-10367.2747	-10371.6078	-10350.1942	-10255.0528	-10227.1834	-10262.1652	-10351.6932	-10293.1641	-10254.1665	-10250.1070	-10256.2346	-10307.3231	-10382.8015	-10428.7582	-10431.7016	-10432.3253	-10435.1046	-10438.5952	-10341.0903	-10291.2164	-10290.4614	-10351.7698
-9961.1707	-9961.9585	-9897.7176	-9893.2423	-9957.6254	-9989.2699	-9958.4133	-9910.2025	-9907.3904	-9926.5937	-9988.3508	-10005.6940	-10009.1517	-10013.3753	-10023.4748	-10025.5866	-9987.2785	-9875.9429	-9877.3763	-9905.0269	-10016.5923	-10043.3675	-10046.8580	-10006.5256	-9932.8635	-9904.3594	-9910.4213	-9933.2903	-9982.2342	-10070.1646	-10078.9402	-10074.1585	-10030.4778	-9947.2852	-9969.6398	-9973.7650	-10092.3223	-10110.0376	-10111.6898	-10115.8587	-10117.5657	-10097.8590	-9980.7789	-9978.2731	-9996.0759	-10032.2723	-10120.4325	-10114.5785	-10023.6280	-9998.8114	-10037.5792	-10108.5057	-10165.4810	-10169.9454	-10173.0311	-10175.9964	-10181.1063	-10183.0212	-10187.1135	-10185.6473	-10106.1312	-10063.0195	-10115.8369	-10122.0738	-10057.6469	-10062.4286	-10095.7034	-10218.1671	-10235.2805	-10238.5522	-10241.8129	-10247.2949	-10248.5861	-10251.8468	-10252.2954	-10253.6194	-10229.0545	-10124.9297	-10101.2073	-10103.0784	-10110.7597	-10148.4223	-10257.2303	-10289.9909	-10295.5057	-10297.1251	-10302.0490	-10304.5001	-10308.0781	-10309.6975	-10312.0282	-10310.5291	-10314.2604	-10309.0629	-10285.1107	-10183.6339	-10172.8232	-10187.2010	-10206.2950	-10328.1021	-10346.7146	-10348.4325	-10350.8178	-10355.6214	-10357.1205	-10362.8979	-10365.3380	-10369.9774	-10372.4066	-10369.2771	-10315.9126	-10227.1724	-10233.1249	-10236.6264	-10242.5460	-10254.6480	-10314.1947	-10392.1679	-10423.9875	-10425.5741	-10428.9661	-10430.3886	-10435.0499	-10436.5818	-10439.0000	-10403.7665	-10288.2620	-10337.6983
-9959.0041	-9964.3001	-9934.7346	-9859.9237	-9894.8836	-9917.2164	-9898.5820	-9881.7422	-9926.7250	-9992.3556	-10000.1901	-10003.8995	-10007.0508	-10016.0889	-10021.1113	-10023.3982	-10024.2298	-9965.5256	-9877.1356	-9878.3611	-9901.8318	-9982.2232	-10022.5885	-9954.2115	-9914.1416	-9902.8713	-9944.1339	-10062.2098	-10069.8911	-10072.5391	-10076.8174	-10081.1833	-10083.5687	-9982.7813	-9940.7856	-9981.1837	-10028.0048	-10104.9276	-10108.9981	-10106.7440	-10027.8188	-9967.7140	-9970.5261	-9983.1971	-10025.4663	-10134.4384	-10139.9204	-10144.1987	-10124.1091	-10002.9694	-10003.5712	-10085.5601	-10137.3599	-10168.2166	-10170.8098	-10172.5277	-10178.1957	-10180.6249	-10187.3980	-10153.8496	-10107.0066	-10156.7602	-10189.7943	-10196.2720	-10096.7648	-10060.4371	-10066.1270	-10167.1333	-10222.7956	-10235.3571	-10238.1255	-10243.1588	-10247.1527	-10249.3192	-10245.0737	-10227.2381	-10155.4800	-10100.2772	-10101.4152	-10122.9164	-10105.5513	-10118.0472	-10184.2686	-10277.5169	-10292.5951	-10296.1622	-10300.4953	-10302.2241	-10306.7760	-10312.0829	-10309.3365	-10308.2422	-10310.6495	-10291.5556	-10233.3000	-10170.3174	-10170.4706	-10188.9299	-10223.5397	-10336.1336	-10343.8368	-10345.7954	-10349.2531	-10352.0652	-10355.3369	-10360.6548	-10362.7885	-10368.2157	-10370.0868	-10375.1749	-10335.9366	-10229.6235	-10222.2157	-10227.1943	-10240.8829	-10295.9981	-10385.4823	-10418.0788	-10419.5778	-10423.5607	-10426.2634	-10428.8786	-10431.6141	-10434.6779	-10438.6608	-10428.5613	-10349.0124	-10286.2596
-9958.2054	-9962.6807	-9963.1402	-9925.0509	-9840.1295	-9840.4358	-9865.0227	-9894.2052	-9987.7380	-9995.4631	-9997.9907	-10003.4399	-10005.3548	-10009.3377	-10018.9010	-10021.6366	-10021.7022	-10023.4092	-9941.9892	-9874.9034	-9886.2394	-9965.6022	-9913.8681	-9915.2906	-9902.6744	-9930.6642	-10028.2346	-10063.8292	-10067.6042	-10070.8759	-10076.4454	-10077.8569	-10083.5906	-10086.1510	-9990.5501	-9939.8665	-9959.8904	-10012.6312	-10099.1283	-10055.6992	-9963.7639	-9966.1603	-9973.6884	-10047.0878	-10129.5582	-10136.1016	-10138.3009	-10143.1264	-10142.8747	-10127.4464	-10004.6545	-10038.9250	-10046.1249	-10123.4088	-10169.1466	-10171.3898	-10177.0140	-10174.5082	-10155.2283	-10125.6628	-10139.6906	-10193.8976	-10198.8872	-10200.4519	-10192.7924	-10122.0848	-10057.5484	-10097.4870	-10184.9142	-10227.3803	-10236.7358	-10241.5284	-10242.0646	-10244.0013	-10161.8702	-10134.1211	-10096.8086	-10102.9690	-10182.9993	-10209.3369	-10270.3717	-10154.6265	-10122.5772	-10188.6345	-10260.9397	-10293.7768	-10298.7008	-10300.9329	-10305.2551	-10305.8788	-10304.7189	-10303.9420	-10234.6130	-10174.3113	-10165.2075	-10166.5315	-10204.8178	-10174.3660	-10190.1007	-10303.8107	-10339.0661	-10346.7583	-10348.1918	-10353.0610	-10354.7679	-10359.1885	-10361.3879	-10364.7362	-10367.9531	-10339.3068	-10244.7782	-10217.8170	-10219.4254	-10223.7804	-10263.8503	-10374.1026	-10409.9816	-10413.4174	-10417.2581	-10420.1030	-10423.7030	-10427.1279	-10431.4390	-10434.1308	-10435.4985	-10438.1794	-10412.4874	-10284.7387
-9956.3562	-9960.5251	-9927.9505	-9866.0731	-9825.1826	-9823.4100	-9843.6309	-9919.5361	-9988.6462	-9995.6273	-9996.6449	-10000.3214	-10003.4727	-10009.5893	-10018.2664	-10015.0166	-10017.2707	-10021.5162	-10008.1231	-9885.6375	-9883.5914	-9876.2274	-9885.6047	-9902.1382	-9994.4455	-10029.0443	-10057.2092	-10061.3235	-10065.9191	-10069.2674	-10072.8892	-10076.6095	-10080.9207	-10083.0982	-10069.6832	-10013.8020	-9938.9364	-9969.1584	-9962.7135	-9959.4418	-9957.8662	-9974.6185	-10094.1716	-10120.4544	-10130.3898	-10134.7557	-10138.6839	-10141.1459	-10143.8267	-10146.8576	-10109.0856	-10000.0588	-10030.4996	-10067.5385	-10164.8136	-10152.9852	-10159.0252	-10125.6847	-10138.6620	-10172.3636	-10188.7658	-10193.2082	-10197.1036	-10199.7407	-10201.5133	-10201.1960	-10132.5016	-10063.3587	-10119.1523	-10123.1133	-10230.3785	-10237.6768	-10238.2677	-10195.1340	-10108.9105	-10090.7905	-10100.8681	-10145.5118	-10257.1756	-10268.2818	-10271.6738	-10231.0131	-10125.2580	-10148.5208	-10186.7524	-10274.0483	-10296.6327	-10300.2217	-10301.9287	-10299.6855	-10282.9879	-10193.5803	-10171.1381	-10159.7036	-10175.7228	-10245.7630	-10318.6700	-10248.2031	-10175.3727	-10204.9710	-10292.7702	-10344.9857	-10347.4039	-10350.8726	-10353.3783	-10358.5101	-10361.1362	-10364.7471	-10360.8517	-10234.0003	-10227.8290	-10219.2613	-10215.8912	-10217.9702	-10241.6707	-10333.3871	-10402.9787	-10413.0235	-10415.6934	-10419.7201	-10422.6744	-10425.1911	-10430.3011	-10433.2007	-10436.0456	-10440.0176	-10352.8312	-10309.3802
-9955.0212	-9950.7866	-9833.9910	-9823.8586	-9806.0230	-9818.5079	-9834.9320	-9915.9252	-9950.0098	-9993.5701	-9995.9227	-9999.7524	-10002.6521	-10006.6569	-10011.1869	-10014.8415	-10017.0956	-10021.4834	-10022.1399	-9893.0453	-9875.0019	-9872.0803	-9881.3045	-9934.2313	-10012.7078	-10052.4713	-10055.9181	-10058.5660	-10063.4790	-10067.3197	-10070.8102	-10074.4977	-10078.5572	-10080.8113	-10076.9378	-10013.3862	-9947.1867	-9936.1461	-9938.0829	-9954.6164	-9963.1731	-10064.2340	-10114.9834	-10125.1704	-10127.7418	-10131.8342	-10135.4779	-10139.8109	-10141.4960	-10143.7938	-10144.4175	-10023.6499	-10002.1597	-10028.3988	-10055.5132	-10049.3309	-10036.9992	-10099.3362	-10162.8768	-10184.4327	-10189.1487	-10193.1754	-10196.9614	-10199.3686	-10201.9619	-10205.9776	-10197.6836	-10069.8364	-10064.2450	-10090.1558	-10208.0457	-10195.8015	-10168.0852	-10091.9175	-10083.7766	-10097.8809	-10160.0209	-10257.9087	-10261.3445	-10267.1657	-10270.5140	-10272.6367	-10184.4436	-10125.1486	-10126.3194	-10214.8188	-10293.7221	-10300.2983	-10296.3592	-10281.7187	-10174.1034	-10148.3676	-10150.2716	-10191.5013	-10225.7937	-10318.4840	-10322.7733	-10240.8500	-10205.2336	-10178.8741	-10223.9774	-10319.6111	-10345.2921	-10349.4391	-10350.9382	-10356.4640	-10356.8141	-10337.5123	-10234.8975	-10217.4012	-10220.5744	-10247.5575	-10345.9924	-10286.7083	-10228.8685	-10246.5071	-10333.0370	-10406.9726	-10412.2576	-10417.3894	-10422.3352	-10424.1954	-10429.5461	-10431.8111	-10430.5090	-10339.4928	-10287.8681	-10276.9807
-9951.1587	-9895.5401	-9858.7091	-9845.8412	-9904.1187	-9927.6551	-9819.7444	-9840.9282	-9912.4237	-9969.1693	-9993.1653	-9997.8376	-10000.4855	-10004.8952	-10007.1055	-10011.5261	-10015.4105	-10005.2234	-9929.6028	-9873.6122	-9872.2663	-9871.6645	-9878.6565	-9906.8433	-10012.4562	-10049.8452	-10054.2002	-10056.4980	-10060.6669	-10063.5338	-10068.9501	-10073.8631	-10077.2332	-10080.3189	-10081.6101	-10015.6184	-9942.2190	-9933.5748	-9937.7875	-9957.8771	-10042.5250	-10105.0370	-10118.7693	-10122.6866	-10124.4264	-10128.5953	-10132.6986	-10135.9265	-10138.3666	-10140.6754	-10146.2996	-10090.1230	-10026.4292	-10000.1463	-10009.1845	-10018.7697	-10077.2661	-10126.3631	-10179.8589	-10183.8965	-10187.5621	-10189.3348	-10195.6921	-10197.7273	-10201.2288	-10204.0190	-10207.9363	-10154.7906	-10079.7718	-10066.4006	-10141.3319	-10118.3864	-10079.2466	-10076.8284	-10102.1374	-10165.6780	-10236.7249	-10256.3768	-10261.6400	-10263.8284	-10268.1833	-10271.7942	-10250.3806	-10137.3052	-10121.9972	-10175.7338	-10206.9515	-10287.0475	-10282.1454	-10181.7191	-10146.0807	-10150.3919	-10177.3094	-10246.7478	-10300.1451	-10318.2214	-10320.8256	-10320.8803	-10282.1126	-10206.4919	-10187.2448	-10236.8343	-10325.7824	-10348.4653	-10349.4173	-10350.2489	-10339.8320	-10252.6128	-10204.9381	-10212.4225	-10258.9920	-10363.0730	-10379.0593	-10370.8856	-10340.3025	-10235.5322	-10254.1665	-10363.4559	-10391.4676	-10414.6758	-10421.7115	-10423.0246	-10426.7558	-10405.1234	-10320.8037	-10283.0645	-10276.8494	-10279.4208
-9966.3682	-9959.8686	-9956.3999	-9953.9927	-9965.4052	-9969.0927	-9900.3546	-9822.7316	-9839.3963	-9916.4614	-9988.5587	-9995.3537	-9998.4284	-10002.0393	-10005.4095	-10008.0027	-10010.1364	-9894.9602	-9869.6621	-9869.7497	-9896.5687	-9935.9273	-9899.1948	-9888.1433	-9918.7701	-10028.5301	-10052.6026	-10055.4585	-10060.0432	-10062.8225	-10067.5495	-10071.5433	-10074.2023	-10078.9292	-10046.5954	-9942.9302	-9935.2708	-9931.8350	-9937.2513	-9963.2497	-10016.6360	-10082.3869	-10114.8849	-10119.4040	-10124.0215	-10128.2123	-10131.1886	-10135.1824	-10134.9855	-10138.1040	-10146.1136	-10145.2601	-10041.7371	-9995.1786	-10007.3243	-10047.0550	-10128.4640	-10174.5301	-10178.9617	-10179.4978	-10185.0345	-10188.2953	-10190.7791	-10195.6046	-10198.4057	-10202.4543	-10205.2008	-10208.1113	-10192.9456	-10067.5167	-10055.4694	-10070.4929	-10069.8145	-10095.9770	-10205.7260	-10243.5855	-10250.5666	-10255.0310	-10256.4644	-10263.1171	-10265.1961	-10269.1900	-10272.3413	-10262.2199	-10125.5425	-10130.3789	-10152.3068	-10211.0876	-10146.5622	-10137.5788	-10139.7672	-10212.0286	-10220.1586	-10307.6951	-10312.7504	-10315.1686	-10318.1448	-10322.0402	-10324.5569	-10288.9623	-10177.6814	-10193.5037	-10258.2917	-10303.1214	-10348.0276	-10324.4365	-10206.6123	-10202.1807	-10224.6995	-10265.0977	-10326.1325	-10375.3390	-10378.5341	-10382.5717	-10384.6617	-10300.3968	-10237.6112	-10285.0560	-10354.0676	-10414.4679	-10418.0350	-10421.5474	-10404.6419	-10357.6785	-10266.4216	-10271.7723	-10281.1387	-10334.3719
-9959.6169	-9958.0194	-9954.5835	-9958.7196	-9962.3086	-9966.1384	-9968.0095	-9880.7464	-9826.1236	-9842.8431	-9946.6834	-9988.8651	-9995.9883	-9998.7348	-10002.4004	-10003.6697	-9932.1195	-9861.7291	-9865.0117	-9881.5671	-9984.9150	-10030.2042	-9983.6566	-9885.7141	-9889.4892	-9916.4832	-10017.2816	-10054.8020	-10058.6208	-10061.7502	-10067.6808	-10070.6680	-10073.5567	-9996.5136	-9938.7285	-9931.4848	-9934.3516	-9941.0482	-9996.2291	-9940.8184	-9949.9441	-10025.1052	-10112.4995	-10118.8459	-10120.8921	-10124.7875	-10127.8841	-10133.8475	-10134.4821	-10137.4912	-10137.0426	-10075.5153	-9993.0449	-9992.7276	-9999.9384	-10013.6270	-10085.6477	-10170.3721	-10176.3356	-10179.8589	-10182.7476	-10187.6059	-10190.9979	-10193.6350	-10198.9747	-10200.8896	-10205.1460	-10207.6080	-10184.3233	-10078.6885	-10055.0318	-10059.0256	-10086.9936	-10211.0876	-10229.8095	-10244.2968	-10247.2730	-10251.8687	-10254.4510	-10259.2327	-10263.8174	-10267.1110	-10270.9626	-10273.6653	-10220.3118	-10128.5625	-10117.1608	-10130.3679	-10126.2865	-10132.9393	-10185.2315	-10271.6301	-10302.0162	-10305.3317	-10310.0258	-10312.9364	-10316.0221	-10318.5387	-10323.2876	-10325.3228	-10259.8126	-10180.2747	-10201.2507	-10258.9263	-10286.6973	-10204.6427	-10197.8696	-10215.7161	-10256.9677	-10339.3396	-10367.8765	-10372.8552	-10377.2211	-10379.7377	-10381.6526	-10381.9152	-10252.9191	-10237.0641	-10290.2863	-10369.6054	-10410.6600	-10380.7006	-10329.9076	-10263.3360	-10265.7323	-10271.3237	-10364.4407	-10423.4185
-9949.3095	-9948.1715	-9949.8675	-9958.5883	-9960.7002	-9965.0660	-9969.6070	-9939.2756	-9878.6565	-9829.2749	-9845.5567	-9937.5248	-9994.4564	-9995.6054	-9980.4068	-9863.0093	-9857.8228	-9859.2672	-9891.5025	-10007.6964	-10025.7508	-10031.0905	-10032.5786	-9988.0444	-9891.3274	-9892.3013	-9957.2315	-10016.6579	-10057.2421	-10060.6341	-10063.5885	-10055.6117	-9989.0292	-9941.7594	-9950.7757	-9934.5048	-9952.8875	-10085.5820	-10096.9180	-9969.4648	-9956.7501	-9961.6193	-10081.4897	-10116.3074	-10118.2551	-10122.3036	-10126.4507	-10131.3418	-10130.9588	-10117.5657	-10049.2325	-9992.5744	-9991.1191	-10010.5413	-10027.0201	-10006.0879	-10044.8119	-10077.0472	-10169.0591	-10178.8851	-10180.6358	-10184.2795	-10190.2539	-10192.2235	-10195.4076	-10198.0556	-10201.7868	-10202.6622	-10103.0456	-10071.7841	-10057.0123	-10065.0109	-10091.6768	-10174.1253	-10239.5370	-10243.5746	-10245.9271	-10249.6037	-10252.1970	-10258.2260	-10260.9068	-10263.9159	-10267.2204	-10270.0654	-10263.2156	-10144.5489	-10113.9001	-10108.7464	-10120.0167	-10177.1343	-10220.4102	-10296.4905	-10300.0029	-10302.5524	-10307.5857	-10309.9602	-10314.0197	-10318.5169	-10320.2348	-10322.3794	-10319.3375	-10227.6758	-10181.1063	-10180.1434	-10185.7676	-10192.1359	-10204.2488	-10248.2359	-10358.4007	-10363.9593	-10367.8218	-10372.3300	-10374.0916	-10377.5274	-10380.0441	-10381.8714	-10301.6223	-10246.9557	-10242.0537	-10269.5511	-10310.4525	-10309.0191	-10262.6357	-10264.5396	-10309.0301	-10348.0933	-10436.8882	-10437.9715
-9941.2561	-9946.3332	-9948.7733	-9955.0759	-9959.6278	-9963.7749	-9966.2587	-9969.4648	-9906.2962	-9838.4444	-9826.6270	-9871.2378	-9925.0399	-9902.2367	-9855.1858	-9853.0630	-9859.9893	-9888.0120	-10007.1383	-10020.5752	-10024.1204	-10027.9720	-10031.0796	-10034.1324	-9977.2227	-9895.4745	-9902.9151	-9962.3086	-10038.9250	-10058.4457	-10056.6512	-9963.0636	-9918.3215	-9922.0528	-9971.0623	-10023.6827	-10084.8380	-10098.1107	-10102.0717	-10102.4985	-9977.6932	-9950.3599	-9976.9491	-10088.6020	-10117.5766	-10121.2422	-10125.0501	-10126.8336	-10118.6818	-10012.0075	-9984.8165	-9992.1696	-10020.2141	-10098.2201	-10154.5937	-10147.9956	-10025.7836	-10022.8511	-10108.7573	-10171.1928	-10180.7671	-10183.0868	-10186.0631	-10189.5317	-10193.5912	-10194.0946	-10145.2601	-10055.6883	-10058.0408	-10069.0814	-10100.5727	-10086.5668	-10076.4673	-10122.0082	-10194.4338	-10243.1150	-10243.6293	-10248.9362	-10249.4067	-10256.4972	-10258.0291	-10262.3512	-10264.2223	-10249.6584	-10185.4831	-10122.1176	-10109.3263	-10114.1189	-10122.8726	-10177.0577	-10283.2068	-10294.8054	-10299.4776	-10301.6551	-10305.9663	-10309.4568	-10312.2142	-10316.1534	-10317.4008	-10318.3965	-10319.9940	-10316.8865	-10181.1610	-10174.4426	-10181.1610	-10208.4615	-10283.7867	-10353.0938	-10357.1314	-10360.9283	-10364.8456	-10368.7410	-10372.2971	-10376.4661	-10377.6150	-10382.0028	-10383.6112	-10359.5824	-10247.1089	-10242.6117	-10258.9810	-10251.6170	-10255.7531	-10296.9391	-10390.5923	-10428.9005	-10431.7126	-10434.3606
-9939.3850	-9945.0311	-9949.4408	-9953.9708	-9957.9428	-9961.6740	-9964.6612	-9968.9833	-9971.9267	-9967.6046	-9895.3869	-9827.7759	-9834.0894	-9845.3270	-9846.3664	-9851.6843	-9898.3194	-10011.7121	-10019.1636	-10018.8792	-10021.1004	-10024.7113	-10029.1428	-10031.1999	-10034.6248	-9981.6871	-9888.1980	-9900.9893	-10008.1450	-10002.3347	-9966.4666	-9918.0480	-9918.2777	-9935.9273	-10036.4849	-10051.6069	-10094.0950	-10096.9290	-10099.8614	-10103.5708	-10104.6759	-9977.6275	-9955.7981	-9972.2659	-10104.3258	-10118.9663	-10121.5814	-10055.6007	-9985.2651	-9977.2665	-9980.2646	-10017.6646	-10124.4592	-10151.3220	-10153.8277	-10156.8806	-10062.8772	-10009.1298	-10025.7070	-10099.9599	-10164.8355	-10180.4607	-10186.0850	-10187.5293	-10187.5184	-10129.5910	-10062.6365	-10047.8538	-10062.5380	-10096.8086	-10210.4420	-10217.3683	-10085.5601	-10092.5631	-10119.8088	-10197.4209	-10242.9400	-10245.8068	-10249.9648	-10254.0571	-10257.1865	-10259.2984	-10257.8649	-10173.8627	-10121.1875	-10106.0328	-10131.7138	-10146.6169	-10122.8507	-10133.1472	-10208.7898	-10293.2844	-10298.2084	-10300.0576	-10304.4563	-10306.7432	-10309.9820	-10314.0525	-10315.0701	-10315.9783	-10284.4542	-10212.3569	-10171.4663	-10171.0396	-10177.8346	-10202.5856	-10315.5844	-10352.2075	-10356.1795	-10359.2432	-10363.4012	-10366.5525	-10370.2072	-10373.5445	-10376.2801	-10379.8034	-10382.0903	-10383.4581	-10287.3319	-10229.8095	-10232.3262	-10251.0918	-10287.9119	-10389.9248	-10423.9109	-10426.5151	-10430.1041	-10434.6341
-9937.6233	-9942.8646	-9946.8256	-9950.4693	-9955.3823	-9957.8771	-9963.7311	-9966.1712	-9969.9134	-9972.5723	-9919.3829	-9824.9528	-9823.2130	-9831.6384	-9847.0996	-9922.0199	-10001.8095	-10011.6683	-10012.4780	-10013.7801	-10018.4086	-10021.0347	-10026.1009	-10029.6243	-10032.8522	-10021.1004	-9943.9369	-9887.9682	-9913.8462	-9903.3418	-9910.8043	-9926.4624	-9932.5243	-10014.1959	-10076.9816	-10085.2975	-10093.3837	-10094.8609	-10097.9903	-10102.7611	-10104.5228	-10070.2850	-9962.1117	-9959.1573	-9998.3956	-10053.7406	-10087.9346	-9984.5101	-9974.6951	-9980.9977	-10006.3943	-10105.4857	-10143.4765	-10147.8971	-10152.3177	-10154.5171	-10153.6745	-10034.6248	-10011.4276	-10044.5602	-10121.1438	-10172.8122	-10184.2686	-10140.1611	-10135.6639	-10039.6144	-10046.5735	-10056.7497	-10156.1474	-10191.3481	-10218.6814	-10218.8236	-10212.8711	-10079.8265	-10083.8422	-10128.9783	-10218.7580	-10244.5484	-10246.8791	-10251.1356	-10254.0243	-10251.3872	-10159.0252	-10099.8724	-10098.8876	-10112.8278	-10211.7551	-10252.3173	-10157.2745	-10125.1704	-10162.1546	-10240.4671	-10294.6084	-10298.7555	-10302.4539	-10304.7846	-10309.6209	-10312.5644	-10313.5273	-10304.7189	-10236.6373	-10173.9174	-10171.6086	-10198.8981	-10192.1031	-10190.6587	-10235.1164	-10316.3175	-10355.4463	-10356.6390	-10360.4359	-10363.4997	-10367.2747	-10371.2139	-10374.9014	-10378.1074	-10348.5638	-10309.8617	-10231.2319	-10228.0916	-10231.1444	-10240.5327	-10347.0210	-10395.2645	-10422.5322	-10424.7534	-10426.6683	-10431.5922
-9936.6714	-9939.8446	-9945.2062	-9948.7514	-9952.7672	-9956.1045	-9960.3500	-9964.3986	-9967.2982	-9957.9318	-9913.2006	-9823.3224	-9819.7225	-9827.2397	-9870.1655	-9988.3070	-10001.5469	-10006.8429	-10006.6678	-10011.8762	-10015.3339	-10018.9557	-10022.5995	-10027.5234	-10031.6704	-10035.7190	-10019.9952	-9936.9340	-9883.4272	-9890.5396	-9899.6106	-9963.1184	-10052.9090	-10067.4182	-10074.5524	-10083.9626	-10089.8385	-10092.9460	-10097.9794	-10099.6535	-10104.4571	-10097.8919	-10080.1000	-9977.6166	-9960.7877	-9995.7257	-9976.5443	-9967.7687	-9972.5723	-10062.8335	-10118.2769	-10137.6991	-10139.8109	-10144.4504	-10149.8339	-10152.0879	-10156.3991	-10158.1061	-10062.2207	-10010.1583	-10024.3830	-10134.2305	-10179.0601	-10087.9674	-10044.9541	-10037.9621	-10067.6042	-10142.9185	-10210.5077	-10213.1009	-10217.2042	-10220.1367	-10180.8765	-10159.8678	-10072.3749	-10073.2175	-10149.2321	-10238.2677	-10245.2816	-10249.0456	-10248.4329	-10138.8590	-10091.4689	-10094.4342	-10120.0386	-10167.7242	-10268.9274	-10278.1297	-10215.7489	-10196.6659	-10126.0239	-10157.5261	-10261.4211	-10294.4552	-10298.9196	-10302.7712	-10306.8745	-10308.1657	-10260.2831	-10205.7150	-10165.1637	-10169.2451	-10230.5317	-10302.4320	-10272.0678	-10181.9270	-10193.8867	-10274.2233	-10338.8582	-10354.1880	-10358.0943	-10361.5411	-10364.7033	-10369.6054	-10372.1221	-10329.4261	-10307.4435	-10230.7177	-10226.7348	-10228.2229	-10247.1417	-10236.1449	-10274.9236	-10355.2494	-10419.1620	-10423.5498	-10426.2525	-10428.8895
-9863.0969	-9940.6324	-9945.1515	-9947.1101	-9952.5374	-9954.6601	-9958.4023	-9960.4047	-9953.4237	-9845.4692	-9821.1340	-9815.9803	-9818.8909	-9841.3331	-9838.2584	-9942.2299	-9995.5288	-10002.4442	-10006.6459	-10009.8629	-10013.0580	-10018.2445	-10022.2055	-10026.5824	-10029.3507	-10032.1191	-9994.1391	-9928.8150	-9881.1622	-9883.9087	-9922.2169	-9987.7161	-10061.8815	-10065.6893	-10070.7993	-10076.0187	-10084.5097	-10088.7224	-10093.6026	-10096.5350	-10100.6274	-10104.0413	-10102.4219	-10023.1137	-9948.3794	-9951.1696	-9957.5926	-9972.1346	-10012.3905	-10118.5505	-10130.3570	-10137.9508	-10141.5507	-10144.9099	-10148.8600	-10151.2126	-10153.4885	-10158.4891	-10110.8144	-10050.1188	-10011.6902	-10038.2466	-10048.3243	-10033.9464	-10046.1140	-10108.9433	-10130.5977	-10204.0956	-10208.3958	-10211.4815	-10216.3398	-10216.9088	-10214.6109	-10197.0489	-10162.4610	-10064.9672	-10076.9050	-10162.3188	-10205.3321	-10226.2205	-10127.2385	-10100.1787	-10091.4251	-10128.7923	-10226.2861	-10261.2242	-10275.7552	-10277.8889	-10281.5545	-10270.7875	-10172.0135	-10130.3242	-10161.8702	-10248.2578	-10295.8230	-10301.1080	-10300.1123	-10223.7366	-10179.9683	-10158.9924	-10164.3540	-10215.5410	-10302.2022	-10329.1088	-10329.8310	-10248.6080	-10195.1669	-10200.7583	-10279.9351	-10309.5115	-10357.7551	-10360.5235	-10363.4559	-10366.3118	-10361.5520	-10259.2984	-10230.5864	-10222.8613	-10231.5055	-10318.2214	-10371.3014	-10257.5039	-10245.4129	-10273.4246	-10381.6745	-10418.4289	-10423.5060	-10426.7121
-9815.7177	-9923.2345	-9944.6481	-9948.1058	-9950.8851	-9954.1240	-9956.9799	-9960.2406	-9871.2487	-9818.9675	-9815.3676	-9871.3691	-9913.2663	-9912.9161	-9832.4591	-9859.6173	-9934.4392	-10000.6168	-10005.9237	-10009.1188	-10012.2701	-10016.9643	-10021.2426	-10024.0876	-10025.6851	-9957.8443	-9885.3093	-9883.0224	-9881.4358	-9879.3349	-9894.6538	-9936.3212	-10052.1102	-10064.6717	-10068.4467	-10076.6314	-10079.2794	-10078.7870	-10082.5948	-10092.9898	-10099.3690	-10101.3714	-10099.7630	-10012.6969	-9941.9236	-9942.6348	-9952.9641	-9990.3751	-10098.6906	-10116.6466	-10124.8641	-10133.5302	-10137.2395	-10140.6754	-10142.8966	-10148.0284	-10150.4029	-10154.2982	-10156.4538	-10156.4538	-10030.9701	-10006.2958	-10009.1954	-10027.3811	-10076.6205	-10159.4848	-10192.6721	-10199.9376	-10206.2731	-10207.0062	-10211.9630	-10213.3307	-10213.1447	-10215.6942	-10210.8906	-10105.0699	-10066.8492	-10086.6762	-10111.7117	-10092.7929	-10085.2866	-10091.5236	-10115.1913	-10250.8839	-10264.1566	-10269.1134	-10272.6696	-10276.1273	-10278.7534	-10282.0469	-10194.4666	-10154.7031	-10133.7381	-10185.3300	-10272.6258	-10296.9610	-10212.8164	-10150.7092	-10154.0356	-10160.2398	-10213.8559	-10311.0106	-10324.0645	-10326.7891	-10330.3452	-10332.8947	-10238.4209	-10193.6897	-10226.2095	-10280.1539	-10354.3959	-10358.5101	-10360.3812	-10342.5347	-10237.4142	-10220.1586	-10217.3246	-10244.2640	-10320.0706	-10382.0793	-10387.8239	-10362.6134	-10247.1198	-10248.9143	-10273.9607	-10376.3019	-10419.8623	-10424.3705
-9783.1432	-9848.2594	-9923.2017	-9945.6220	-9949.0359	-9951.1258	-9914.1307	-9828.2683	-9814.2734	-9818.0593	-9844.1124	-9945.6876	-9976.7850	-9983.2080	-9876.7088	-9837.6456	-9854.7371	-9976.7631	-10003.0788	-10008.9985	-10013.1127	-10017.1831	-10019.6670	-10023.3107	-9941.0373	-9900.4422	-9882.4972	-9885.2655	-9958.9275	-9996.6120	-9892.3997	-9918.9671	-9973.6337	-10063.9605	-10067.7246	-10075.4825	-10080.6143	-10082.6058	-10085.9431	-10091.3923	-10096.6445	-10099.5113	-10004.3700	-9940.4683	-9940.1838	-9937.4592	-9950.1301	-9967.2435	-10077.9554	-10117.7298	-10125.6957	-10135.2919	-10139.1654	-10140.6972	-10145.3039	-10149.0460	-10150.9281	-10155.7535	-10157.7888	-10094.8500	-10024.1423	-10002.2253	-10006.0003	-10051.9899	-10112.4229	-10188.4703	-10197.4647	-10198.5808	-10202.8154	-10205.1679	-10209.9496	-10212.8602	-10216.1647	-10218.3203	-10217.1714	-10187.1682	-10076.2813	-10064.8687	-10071.2151	-10076.5548	-10083.8969	-10143.9142	-10167.1661	-10260.2394	-10263.8721	-10267.8441	-10269.9122	-10275.2847	-10276.9479	-10282.4190	-10284.3119	-10220.7932	-10145.5665	-10133.8037	-10162.7565	-10172.7356	-10147.6345	-10144.4285	-10153.3244	-10201.8744	-10289.0061	-10316.2518	-10319.6986	-10324.6663	-10327.7957	-10329.3057	-10333.9233	-10239.3181	-10189.9694	-10203.2968	-10315.0592	-10353.8379	-10304.5219	-10236.3528	-10210.3435	-10211.6456	-10231.2101	-10353.4987	-10365.3708	-10387.2331	-10388.2726	-10392.7588	-10373.5555	-10253.1161	-10250.0742	-10299.9263	-10388.3054	-10425.3990
-9791.0433	-9790.0695	-9854.6168	-9942.2190	-9947.7557	-9889.4235	-9846.1804	-9803.3422	-9817.9608	-9893.3845	-9929.6466	-9974.4106	-9975.2750	-9981.5120	-9937.3170	-9839.1337	-9841.8911	-9885.9986	-9930.7079	-10005.5408	-10009.1407	-10014.0099	-10004.2277	-9949.6815	-9874.5642	-9875.0237	-9883.0443	-9925.9044	-10019.7108	-10050.6878	-9917.5993	-9896.2842	-9909.8195	-9998.4284	-10032.3379	-10074.8369	-10081.1067	-10084.0830	-10087.3437	-10090.6373	-10074.2132	-9959.7263	-9940.3260	-9941.5406	-9964.0265	-10008.4732	-10022.2384	-9955.3167	-10007.1930	-10078.0320	-10127.9935	-10131.3637	-10136.1344	-10139.3514	-10141.6054	-10146.7263	-10149.5056	-10151.4642	-10083.6781	-10011.8762	-10007.7620	-10001.9189	-10009.7754	-10026.0024	-10108.6917	-10164.1133	-10196.3158	-10199.1607	-10203.4938	-10205.2555	-10209.7089	-10212.7508	-10216.6790	-10220.5525	-10221.8655	-10214.3374	-10094.8609	-10062.8772	-10066.0395	-10076.4563	-10129.6239	-10231.8447	-10249.3739	-10256.8364	-10260.2831	-10265.3931	-10267.1985	-10273.1620	-10274.5735	-10278.5017	-10282.3424	-10284.0822	-10223.6272	-10132.2390	-10130.4008	-10131.4293	-10141.6711	-10157.7997	-10214.3046	-10301.5019	-10312.9364	-10315.1139	-10320.9569	-10322.9703	-10325.8043	-10329.4808	-10331.9647	-10279.4208	-10191.4903	-10189.6521	-10241.7910	-10258.8716	-10237.7425	-10204.5989	-10211.3502	-10258.4886	-10352.5467	-10377.0022	-10380.3177	-10384.3444	-10386.7626	-10390.2203	-10391.1722	-10281.4013	-10240.4233	-10253.2255	-10291.8073	-10357.0439
-9847.0120	-9777.5518	-9795.8578	-9885.2874	-9857.9103	-9800.7489	-9801.7119	-9817.3700	-9858.5997	-9959.4418	-9968.2830	-9972.3753	-9976.2051	-9979.2251	-9982.1357	-9949.3532	-9841.3550	-9852.5597	-9884.6090	-9996.5792	-10008.0246	-9978.9953	-9934.8988	-9882.2127	-9870.5594	-9926.4515	-9956.6406	-10038.6405	-10048.0945	-10050.1516	-10053.5327	-9942.7333	-9898.0349	-9916.9866	-9986.9064	-10074.6618	-10080.0672	-10081.1067	-10085.1334	-10085.8775	-10005.4642	-9934.2313	-9936.9121	-9968.4034	-10077.9663	-10103.7021	-10055.4257	-9960.3391	-9962.7901	-10007.8386	-10075.9421	-10129.9521	-10133.9788	-10137.9945	-10138.4432	-10144.1221	-10144.9865	-10092.0050	-10004.7311	-10002.9913	-10017.7302	-10049.5936	-10051.7273	-10013.2987	-10036.9007	-10150.4576	-10164.5181	-10195.2325	-10198.8215	-10203.5266	-10208.9758	-10210.4420	-10213.4730	-10216.6352	-10204.2597	-10162.8987	-10069.6832	-10063.0414	-10059.4633	-10073.5129	-10108.0352	-10194.3353	-10251.6389	-10256.2236	-10259.9768	-10262.6357	-10268.1396	-10271.5207	-10274.2124	-10277.8452	-10280.5369	-10281.6640	-10252.7441	-10131.8779	-10124.7218	-10127.5558	-10141.3428	-10232.7529	-10271.0283	-10301.8521	-10309.2270	-10314.4355	-10316.7771	-10319.5892	-10324.7210	-10326.1982	-10330.9908	-10334.9737	-10312.0063	-10187.1245	-10189.9366	-10191.0527	-10196.0970	-10206.0980	-10252.3830	-10347.4039	-10371.3889	-10376.2363	-10378.7311	-10382.1341	-10385.5808	-10389.8592	-10391.6427	-10393.2293	-10298.0333	-10237.3157	-10258.4777	-10351.2993
-9923.5846	-9791.8312	-9782.6179	-9780.5499	-9790.0585	-9791.0762	-9813.9013	-9911.7234	-9920.0066	-9963.1731	-9965.2521	-9967.8782	-9971.9377	-9978.5139	-9979.3783	-9983.3940	-9930.6751	-9840.3264	-9849.9664	-9871.8615	-9980.0676	-9896.8532	-9865.6683	-9871.4566	-9901.9522	-10006.3505	-10035.1719	-10043.1596	-10045.1292	-10050.6440	-10052.0555	-10046.7048	-9929.0885	-9902.7728	-9931.8678	-9995.5507	-10077.1457	-10078.1086	-10003.9651	-9954.2772	-9932.0757	-9944.8998	-9961.6631	-10076.3797	-10099.6864	-10105.2559	-10108.7902	-10025.7398	-9968.9942	-9967.3201	-10015.6512	-10123.8793	-10129.9740	-10134.3180	-10136.9988	-10136.4298	-10109.3591	-10001.5579	-9995.2552	-10019.8092	-10071.3026	-10118.8240	-10117.1390	-10094.1168	-10019.1965	-10042.5578	-10145.3804	-10192.6830	-10198.9857	-10203.6470	-10206.4372	-10210.7265	-10212.7398	-10210.7484	-10120.2903	-10063.5666	-10058.4457	-10069.2127	-10142.8857	-10068.5671	-10086.3917	-10139.6796	-10243.0275	-10254.1994	-10257.7555	-10261.3117	-10265.5244	-10269.5401	-10271.1596	-10275.1425	-10278.4360	-10263.3032	-10138.9246	-10121.6909	-10120.8702	-10120.9796	-10140.8723	-10251.1027	-10294.2692	-10303.5809	-10309.7194	-10313.1005	-10315.9345	-10316.2737	-10318.9436	-10324.7648	-10330.6626	-10334.5142	-10314.7528	-10213.0462	-10181.4783	-10183.0321	-10192.0922	-10212.5538	-10344.6246	-10363.1277	-10369.5507	-10372.8224	-10375.3171	-10378.8186	-10379.8253	-10384.5851	-10388.2944	-10392.2555	-10385.8544	-10253.7617	-10244.8439	-10247.5356
-9924.3506	-9890.4849	-9777.3548	-9770.7567	-9783.0337	-9789.4020	-9890.4958	-9942.7552	-9956.1045	-9960.5251	-9960.6126	-9967.0466	-9970.1213	-9975.0999	-9980.0676	-9982.2560	-9986.3265	-9905.6397	-9838.9587	-9842.9416	-9854.9013	-9857.0678	-9868.2396	-9882.5300	-10019.8639	-10034.4169	-10038.0387	-10040.4350	-10041.7919	-10044.3414	-10049.7358	-10052.3619	-10004.3590	-9923.1689	-9901.8756	-9937.6780	-10027.9392	-10064.6827	-9930.2703	-9925.4448	-9929.1979	-10013.2330	-10089.7619	-10096.0317	-10099.9161	-10102.8267	-10105.7701	-10109.2497	-10062.6037	-9962.3305	-9970.0009	-10039.7347	-10123.3869	-10133.5083	-10134.3399	-10042.0982	-9992.5088	-9990.7143	-10028.3769	-10065.5799	-10153.6308	-10162.1656	-10165.0981	-10160.3820	-10036.9445	-10020.1047	-10056.4652	-10153.0399	-10196.2939	-10198.9091	-10203.0561	-10205.2883	-10182.6054	-10091.4579	-10055.7539	-10059.5290	-10092.0926	-10141.8680	-10223.2223	-10186.7087	-10078.4587	-10093.4056	-10153.3572	-10251.8796	-10255.5343	-10260.3597	-10264.1238	-10265.8417	-10270.2951	-10273.6106	-10250.2930	-10122.8835	-10120.4106	-10132.3484	-10157.2526	-10135.2262	-10131.2323	-10171.1271	-10289.0827	-10303.1104	-10307.6295	-10309.6647	-10311.5358	-10310.2228	-10318.4950	-10323.8128	-10328.5617	-10331.8005	-10282.6816	-10181.8832	-10180.5702	-10181.0735	-10191.6873	-10255.0200	-10353.4439	-10364.0687	-10368.0844	-10370.7981	-10373.3147	-10374.2886	-10377.3961	-10384.0489	-10388.2726	-10391.6974	-10395.1114	-10289.2030	-10238.3005	-10238.8695
-9918.8905	-9826.8896	-9773.5470	-9767.2553	-9775.8010	-9809.0212	-9918.7701	-9951.2462	-9953.2158	-9956.8595	-9960.8862	-9970.9091	-9975.4501	-9975.9206	-9978.2622	-9979.6299	-9983.5581	-9971.9377	-9885.6813	-9832.6998	-9836.7265	-9845.4364	-9886.6333	-9971.6203	-10024.7222	-10030.3574	-10033.5744	-10037.0539	-10039.4174	-10043.0392	-10046.0811	-10050.7753	-10055.9400	-10046.0374	-9910.3666	-9900.6501	-9923.3220	-9912.1721	-9917.3367	-9926.1670	-10007.2806	-10079.6295	-10089.1382	-10093.3181	-10095.4299	-10100.2772	-10103.6146	-10107.8273	-10107.4115	-9989.9593	-9962.7573	-9986.8955	-10037.3275	-10122.5334	-10014.7212	-9984.5539	-9990.0906	-10002.1159	-10124.2075	-10128.2233	-10154.1450	-10160.7759	-10164.4634	-10169.9782	-10125.0720	-10029.6790	-10022.2931	-10060.2511	-10134.3727	-10197.6398	-10201.0428	-10159.7693	-10081.0082	-10051.9461	-10054.4847	-10087.4094	-10152.4928	-10216.0881	-10220.3993	-10226.9317	-10110.1907	-10087.5516	-10119.1085	-10157.7669	-10253.6194	-10258.2370	-10263.0296	-10265.7542	-10267.1657	-10186.1834	-10148.7834	-10114.3268	-10128.8032	-10150.9281	-10265.0101	-10229.8751	-10144.1002	-10137.5459	-10183.4589	-10281.7296	-10307.4872	-10309.2599	-10310.0477	-10313.1443	-10319.0202	-10322.9484	-10322.9703	-10226.0673	-10181.0297	-10179.1805	-10183.8418	-10189.8600	-10191.1730	-10207.7831	-10306.3821	-10363.0620	-10366.7386	-10369.5397	-10372.6692	-10375.3062	-10377.9980	-10380.4818	-10383.6769	-10387.7692	-10370.2838	-10247.7435	-10241.3315	-10238.9899
-9833.8487	-9775.5931	-9771.3695	-9773.4047	-9775.2649	-9787.8701	-9861.9808	-9938.0391	-9951.8480	-9957.1440	-9960.3610	-9968.7316	-9980.9758	-9975.5485	-9974.6404	-9979.0719	-9974.5638	-9957.2862	-9839.4839	-9830.8178	-9834.5271	-9859.7377	-9924.0004	-10016.8439	-10026.1228	-10030.5653	-10034.3622	-10036.0144	-10038.6077	-10041.2010	-10046.2343	-10049.4185	-10053.1607	-10055.5570	-10002.5645	-9899.2385	-9896.4593	-9905.1363	-9913.9337	-10024.7660	-10046.2234	-10082.7043	-10085.3851	-10090.8670	-10093.2415	-10096.8086	-10100.5836	-10104.3805	-10107.8710	-10109.6436	-9998.3409	-9962.2539	-9971.2702	-9973.6993	-9974.7279	-9981.8621	-9994.6753	-10074.0710	-10135.4122	-10152.8867	-10154.3420	-10159.4191	-10162.7565	-10173.7095	-10173.5672	-10168.9716	-10055.1631	-10037.5026	-10082.9450	-10162.7783	-10108.7245	-10072.9768	-10043.5207	-10052.6902	-10122.7085	-10188.7220	-10209.8621	-10214.8407	-10222.4236	-10226.0235	-10226.3627	-10118.0034	-10082.2885	-10110.3002	-10191.3700	-10254.8559	-10258.8169	-10249.0894	-10204.5442	-10113.9876	-10110.2564	-10124.6562	-10217.6638	-10271.8599	-10280.5041	-10282.5174	-10279.1254	-10183.2181	-10142.9623	-10190.2648	-10295.3197	-10304.4672	-10310.1681	-10312.6410	-10315.4421	-10316.3394	-10235.6635	-10175.1319	-10181.8832	-10214.1514	-10248.5423	-10339.0770	-10202.2683	-10196.9723	-10215.9240	-10306.7870	-10354.7132	-10368.1829	-10370.2838	-10373.7962	-10375.8533	-10378.6217	-10378.7639	-10312.7285	-10253.2365	-10244.8220	-10239.8871	-10241.9442
-9769.2577	-9770.9427	-9826.0689	-9845.7537	-9856.7067	-9780.0137	-9801.5696	-9868.4913	-9946.7381	-9955.2838	-9957.8333	-9966.3134	-9978.8093	-9981.7636	-9973.3273	-9976.5771	-9920.6850	-9847.2309	-9830.7849	-9831.3539	-9836.7921	-9839.8778	-9875.9757	-9936.8246	-10022.4244	-10027.0310	-10030.1604	-10032.6333	-10037.1852	-10038.9250	-10044.7681	-10047.3285	-10050.0093	-10047.6568	-9941.7923	-9893.7237	-9893.8222	-9898.5273	-9928.8697	-10054.0798	-10075.9639	-10079.5420	-10084.3456	-10087.0701	-10090.5935	-10095.1454	-10099.3034	-10103.7568	-10105.1246	-10108.1993	-10111.0442	-9985.8560	-9955.9951	-9967.5280	-9970.8216	-10018.9120	-10082.9778	-10140.9599	-10143.3233	-10146.9999	-10152.3287	-10154.5827	-10159.7255	-10168.5558	-10173.2937	-10175.9635	-10098.6469	-10036.1567	-10036.6053	-10071.9044	-10043.4332	-10035.7518	-10043.4550	-10104.0085	-10169.2560	-10206.4700	-10209.5885	-10213.6262	-10220.0054	-10222.8065	-10225.8594	-10229.7438	-10142.7762	-10085.2756	-10139.9751	-10171.0505	-10239.1540	-10140.5878	-10126.8008	-10105.6607	-10120.6842	-10188.9955	-10264.9116	-10275.8099	-10278.1734	-10281.4561	-10285.2530	-10278.4032	-10145.7962	-10145.7744	-10229.0435	-10284.1806	-10307.5420	-10307.7936	-10302.0819	-10184.9579	-10171.3569	-10182.2771	-10203.5485	-10287.3757	-10342.3377	-10350.0519	-10319.6111	-10241.3096	-10198.0228	-10254.1665	-10322.9265	-10366.2899	-10368.1610	-10372.8552	-10375.9956	-10378.1949	-10329.6887	-10243.7934	-10236.0246	-10235.8276	-10277.0026	-10392.7260
-9771.6977	-9793.9211	-9904.0202	-9935.6866	-9927.2940	-9844.5829	-9783.4167	-9790.1570	-9841.9240	-9947.1210	-9954.7696	-9964.0047	-9976.1613	-9976.5990	-9967.4952	-9935.5115	-9829.9424	-9829.2859	-9843.2370	-9912.7958	-9957.2643	-9847.2418	-9864.8367	-9898.5164	-9957.5707	-10025.5538	-10026.5714	-10030.1823	-10034.9968	-10039.4065	-10041.6605	-10043.5754	-10028.4535	-9938.0501	-9893.0125	-9891.0210	-9895.2337	-9905.4208	-9919.3391	-9992.3337	-10068.3483	-10077.5943	-10081.6429	-10084.7833	-10094.4889	-10093.4165	-10095.1126	-10099.7411	-10103.4614	-10106.8534	-10082.5401	-9960.4157	-9955.4042	-9959.2777	-9995.7476	-10041.3761	-10128.0591	-10139.3623	-10142.5027	-10144.3519	-10149.6041	-10153.3463	-10158.4234	-10164.2993	-10171.1490	-10173.0311	-10175.6572	-10113.3749	-10016.5266	-10024.2298	-10028.3003	-10034.8983	-10109.7749	-10189.5755	-10202.1260	-10204.9491	-10206.8311	-10209.8621	-10214.9283	-10220.2461	-10222.4345	-10225.5858	-10229.3609	-10137.7429	-10084.0501	-10107.7288	-10120.4106	-10098.5156	-10097.3995	-10110.3439	-10199.0623	-10264.5287	-10269.7699	-10272.0896	-10276.8932	-10281.2700	-10288.6231	-10290.7896	-10220.9792	-10139.3842	-10164.3212	-10204.2050	-10304.1280	-10290.7240	-10229.4593	-10162.7565	-10169.3545	-10209.3478	-10256.5191	-10338.8800	-10344.8325	-10349.6908	-10351.2665	-10353.7613	-10244.3187	-10200.9115	-10257.5805	-10329.2291	-10365.3052	-10369.7476	-10371.6297	-10358.5320	-10265.7104	-10225.6077	-10234.3504	-10302.1803	-10385.3291	-10397.7156
-9806.1872	-9923.3549	-9929.8435	-9932.6228	-9936.1352	-9933.4216	-9844.5172	-9787.4215	-9832.7217	-9874.0608	-9950.9179	-9960.8971	-9963.2278	-9957.6801	-9858.3590	-9819.9413	-9821.3529	-9830.9491	-9909.1958	-9968.0095	-9992.7385	-9931.9772	-9854.8903	-9851.3451	-9907.0293	-10005.5955	-10024.0438	-10028.0267	-10030.3574	-10034.1543	-10036.8570	-9995.3537	-9943.7618	-9890.7365	-9893.5268	-9935.9054	-10010.5085	-9951.5526	-9901.3175	-9924.2083	-10027.7751	-10074.4977	-10077.0472	-10083.9845	-10090.4403	-10091.2391	-10094.3357	-10097.2244	-10086.2495	-10064.5623	-9958.7962	-9953.7191	-9952.3732	-9948.2262	-9969.8587	-10032.1081	-10113.0685	-10136.8237	-10140.8942	-10141.3538	-10146.5950	-10150.9390	-10153.9809	-10157.5590	-10168.1290	-10167.6694	-10164.0367	-10065.2517	-10018.8463	-10014.7868	-10022.4244	-10066.2474	-10185.1002	-10193.8429	-10198.1759	-10202.8701	-10205.8135	-10208.9211	-10213.8231	-10218.6048	-10219.8084	-10223.3099	-10226.6144	-10209.9824	-10081.5991	-10078.0539	-10082.6495	-10089.6196	-10102.7392	-10189.2034	-10256.4753	-10262.9749	-10266.1809	-10268.7085	-10275.0440	-10279.1801	-10286.2596	-10290.1222	-10289.1374	-10195.6155	-10135.6420	-10154.6593	-10197.8586	-10176.2918	-10154.8672	-10161.2027	-10179.8808	-10295.3525	-10333.2558	-10338.4205	-10342.3815	-10346.7912	-10348.7607	-10353.0281	-10314.5886	-10202.1589	-10200.8458	-10288.7106	-10340.7730	-10364.7471	-10329.2839	-10234.3504	-10224.1853	-10228.9341	-10285.6578	-10371.8813	-10393.3716	-10396.3697
-9890.1238	-9922.8844	-9927.7536	-9929.7450	-9934.4611	-9936.2884	-9924.6241	-9792.7284	-9792.2688	-9801.4383	-9909.8305	-9954.8790	-9957.4722	-9879.4553	-9812.8181	-9818.5079	-9834.0347	-9940.0744	-9982.0481	-9987.3879	-9990.9769	-9992.5197	-9920.4990	-9849.1129	-9866.3795	-9929.1104	-10014.9947	-10024.1532	-10028.4754	-10028.9568	-10032.9725	-9908.3205	-9894.6648	-9888.3074	-9910.6839	-10023.8469	-10050.9066	-10029.5148	-10000.3323	-9907.6749	-9979.7394	-9961.0065	-10072.8455	-10081.0629	-10083.1748	-10087.8361	-10089.3133	-10086.0963	-10017.0409	-9986.3921	-9949.8019	-9960.1093	-10044.1663	-10055.9837	-9963.0527	-9969.8806	-10063.2821	-10135.2371	-10136.9113	-10138.8699	-10144.1878	-10145.8072	-10151.3329	-10154.3967	-10163.9163	-10163.8944	-10076.8284	-10019.5138	-10011.6683	-10014.4804	-10019.7108	-10049.4185	-10129.3503	-10190.9214	-10194.5651	-10199.7516	-10203.4500	-10207.3235	-10210.9672	-10215.7708	-10218.0358	-10219.3489	-10224.3384	-10222.9488	-10091.5673	-10071.6637	-10075.9858	-10093.7010	-10209.6432	-10248.1265	-10256.6066	-10258.5434	-10262.8655	-10268.4897	-10277.3090	-10278.6987	-10284.8153	-10289.4109	-10286.8286	-10254.0352	-10172.8341	-10135.0402	-10138.6292	-10145.2820	-10150.7092	-10184.9251	-10303.6794	-10327.5222	-10334.2953	-10337.1184	-10340.7074	-10343.1584	-10347.5243	-10350.4239	-10353.1376	-10275.0878	-10246.5837	-10206.9953	-10291.0960	-10284.1697	-10221.5044	-10214.2717	-10224.2728	-10283.3490	-10348.4325	-10388.2944	-10392.4087	-10393.4263
-9915.2906	-9919.0765	-9924.0661	-9926.4515	-9931.5942	-9935.4459	-9937.2404	-9857.6149	-9783.6465	-9791.5576	-9806.3841	-9887.7384	-9818.2344	-9809.7652	-9818.2672	-9839.0462	-9942.8755	-9968.0861	-9979.8707	-9983.7989	-9989.2590	-9991.9507	-9994.8285	-9895.6277	-9852.4284	-9866.9704	-9922.2825	-10009.4471	-10024.6785	-9959.4528	-9893.0344	-9878.7331	-9892.3122	-9931.8131	-10001.1968	-10046.0155	-10050.6878	-10051.3115	-10043.2909	-9920.5318	-9912.5769	-9960.7986	-10009.2720	-10076.4126	-10083.2732	-10086.1291	-10088.1096	-10020.3454	-9948.8608	-9945.9721	-9953.5988	-9991.7975	-10104.9604	-10116.8216	-10047.0878	-9970.2088	-9976.7522	-10064.4201	-10134.4603	-10139.6906	-10143.1701	-10145.3039	-10150.7202	-10152.5803	-10135.4669	-10060.2183	-10008.1997	-10026.0681	-10049.3309	-10138.4103	-10086.3917	-10028.6942	-10105.2778	-10144.1440	-10195.3857	-10195.9219	-10200.0033	-10205.3102	-10210.5952	-10212.8493	-10216.3617	-10220.2680	-10182.2990	-10157.4167	-10073.2613	-10065.2845	-10070.8868	-10086.7966	-10179.8699	-10226.7785	-10255.0310	-10257.7993	-10262.2855	-10265.8745	-10272.3194	-10276.6415	-10282.7253	-10280.3618	-10282.7582	-10283.0864	-10271.5972	-10142.1635	-10130.9260	-10139.2201	-10190.9432	-10290.7349	-10322.9593	-10325.5307	-10330.5969	-10334.1640	-10336.2430	-10341.5280	-10343.3772	-10347.8088	-10351.3759	-10350.5552	-10230.5426	-10194.4994	-10204.7959	-10199.4124	-10202.4324	-10227.8837	-10277.0026	-10374.5621	-10380.6678	-10385.1431	-10387.9990	-10388.9947
-9914.3386	-9917.5993	-9923.6503	-9925.0290	-9930.6861	-9933.3997	-9936.2118	-9938.3564	-9905.1691	-9783.4605	-9785.9224	-9806.9093	-9799.4578	-9805.0164	-9814.4156	-9939.8008	-9968.6550	-9973.9510	-9976.1285	-9981.9934	-9984.8274	-9988.6681	-9991.0535	-9994.6425	-9880.0680	-9849.4959	-9874.0280	-9963.6983	-9959.0698	-9880.9106	-9870.0889	-9894.2380	-9978.3278	-10030.5981	-10038.8266	-10044.2757	-10047.2519	-10051.3115	-10055.9400	-10027.0638	-9913.7040	-9914.5684	-9961.2801	-10067.1446	-10077.9663	-10080.5487	-9996.2728	-9945.6110	-9941.4859	-9956.6078	-10042.4812	-10102.6188	-10111.2412	-10113.5171	-10109.5561	-10028.5738	-9977.9120	-10001.0764	-10084.3675	-10132.8627	-10141.0255	-10145.2710	-10147.3610	-10139.2638	-10018.1789	-10007.0508	-10011.3072	-10050.4908	-10121.8222	-10174.3003	-10155.0861	-10026.8450	-10035.9378	-10053.3904	-10159.4629	-10195.6702	-10200.6051	-10203.3625	-10206.6889	-10211.5034	-10214.2827	-10172.2651	-10112.4886	-10070.1099	-10073.2175	-10093.5041	-10146.4637	-10085.3960	-10096.2177	-10221.9640	-10254.6589	-10257.9744	-10261.6400	-10264.1785	-10267.9645	-10270.9845	-10275.4926	-10275.5364	-10279.4537	-10211.0219	-10134.2961	-10133.6724	-10132.5563	-10143.1811	-10180.9969	-10303.7779	-10322.0183	-10324.0973	-10329.2401	-10332.3367	-10335.8053	-10339.3506	-10342.5894	-10345.0514	-10348.5310	-10349.6908	-10286.8943	-10205.2555	-10188.8971	-10193.5256	-10214.2061	-10329.9732	-10362.2523	-10374.1026	-10378.6326	-10380.8648	-10385.1212	-10388.1084
-9911.9532	-9914.9404	-9918.9999	-9923.5846	-9927.0095	-9930.8940	-9934.3845	-9937.3279	-9935.0191	-9838.3787	-9782.5523	-9782.5742	-9790.6494	-9826.3206	-9946.1034	-9963.0855	-9966.4338	-9971.4234	-9974.4106	-9979.3783	-9982.2670	-9986.1952	-9988.9088	-9993.4388	-9997.1263	-9899.3370	-9849.2552	-9867.6269	-9859.3000	-9859.2343	-9871.3144	-9946.8256	-10025.0943	-10033.0273	-10037.5026	-10041.8028	-10045.7419	-10048.5759	-10053.9376	-10055.5570	-10055.5898	-9952.0450	-9917.8291	-9968.9395	-10028.3331	-9971.0076	-9938.5534	-9936.6714	-9944.6919	-10065.7112	-10100.8462	-10105.0042	-10108.5932	-10111.8211	-10115.3992	-10116.2308	-9994.3251	-9971.9486	-10019.9077	-10074.2242	-10136.8675	-10141.3100	-10133.4755	-10049.2543	-9999.4679	-10011.8325	-10033.9792	-10142.1635	-10169.8141	-10171.9806	-10175.7447	-10093.1539	-10033.9792	-10038.6077	-10114.3597	-10177.4298	-10198.3291	-10202.0932	-10205.1679	-10208.6913	-10128.6500	-10096.2834	-10066.9914	-10088.7443	-10116.0119	-10218.7033	-10221.5263	-10169.6609	-10087.1030	-10113.8782	-10231.1991	-10255.4796	-10258.9263	-10262.6357	-10263.4782	-10268.8836	-10270.5359	-10223.1786	-10216.2194	-10133.4317	-10133.3442	-10139.0559	-10152.0551	-10151.4314	-10157.7559	-10190.1663	-10304.6532	-10324.5459	-10326.4717	-10331.2753	-10332.6759	-10338.2454	-10339.5256	-10343.3882	-10347.0975	-10291.2711	-10226.1877	-10188.6016	-10186.9056	-10191.1949	-10214.5672	-10244.9424	-10367.2419	-10375.0327	-10377.3524	-10379.3876	-10383.0860	-10385.3073
-9910.9028	-9913.4742	-9917.8072	-9921.2102	-9925.1822	-9928.4976	-9931.0909	-9933.4216	-9851.5749	-9784.9377	-9777.9347	-9778.8757	-9789.7412	-9849.5615	-9936.2446	-9960.9299	-9964.8034	-9968.8848	-9972.2440	-9975.1875	-9980.1770	-9985.1119	-9987.2128	-9990.8237	-9995.2662	-9943.7509	-9860.9194	-9842.4273	-9848.0953	-9866.0403	-9931.3098	-10015.3011	-10027.7969	-10031.9440	-10035.7190	-10038.4217	-10042.9955	-10045.9827	-10049.8562	-10053.8391	-10054.1017	-10011.6574	-9908.1673	-9917.7744	-9917.7306	-9925.0618	-9928.6289	-9956.4109	-10061.2031	-10093.0992	-10096.8852	-10100.9775	-10104.3477	-10108.6589	-10112.2479	-10115.6618	-10070.3069	-9975.4172	-9972.8677	-9992.9683	-10092.2348	-10057.9752	-10021.0347	-9993.1543	-9998.5816	-10024.4924	-10091.5345	-10163.7084	-10168.1837	-10170.5800	-10174.4535	-10173.4687	-10081.5116	-10030.2699	-10037.0758	-10135.7514	-10163.5552	-10200.0689	-10203.3515	-10103.3738	-10061.3563	-10057.9424	-10071.9701	-10151.8144	-10220.2023	-10229.8095	-10233.6283	-10193.5146	-10144.9646	-10089.1820	-10110.6065	-10209.5229	-10256.5847	-10260.6333	-10263.5329	-10266.5530	-10231.3085	-10182.7586	-10139.4170	-10135.7843	-10145.8728	-10188.7767	-10298.7226	-10256.5847	-10155.9614	-10155.6660	-10216.4820	-10314.4245	-10323.7034	-10328.8899	-10332.5118	-10335.0832	-10337.0746	-10340.8387	-10325.9246	-10235.8057	-10187.8357	-10189.9256	-10220.3008	-10222.2923	-10196.2064	-10242.7868	-10300.0685	-10372.3409	-10375.7001	-10377.5493	-10381.2806	-10381.7620
-9906.5150	-9909.9071	-9915.9690	-9918.3215	-9923.9457	-9924.4162	-9926.5828	-9886.9068	-9794.7089	-9778.0660	-9786.8197	-9799.4140	-9787.1917	-9824.5370	-9862.0464	-9949.5283	-9965.0223	-9968.8301	-9971.5000	-9976.1504	-9980.1770	-9982.0372	-9988.1429	-9990.3313	-9983.6566	-9900.3765	-9847.5591	-9839.3416	-9846.4649	-9895.3432	-9986.2171	-10023.0481	-10025.5648	-10028.5738	-10032.7428	-10036.0254	-10039.5378	-10044.2429	-10047.5693	-10050.1844	-10054.4518	-10055.1521	-9930.1390	-9904.6658	-9904.6767	-9913.4961	-9952.2310	-10034.1215	-10085.5054	-10091.1515	-10093.4384	-10096.8742	-10100.9338	-10105.7373	-10108.6370	-10113.7250	-10115.5524	-10099.5660	-9971.1827	-9975.7346	-9987.2785	-9985.0791	-9984.4116	-9992.8698	-10058.9928	-10124.4264	-10156.7602	-10159.0690	-10163.4458	-10167.9977	-10169.7703	-10175.2304	-10178.5130	-10101.8529	-10030.9592	-10040.2709	-10123.0914	-10196.5128	-10092.1692	-10052.7449	-10053.4452	-10081.3584	-10139.8875	-10222.0187	-10224.4260	-10229.6344	-10232.3590	-10235.4665	-10223.5944	-10143.3343	-10092.3442	-10139.7890	-10238.7273	-10258.5543	-10261.1038	-10223.4850	-10161.2246	-10115.9900	-10124.9954	-10142.8857	-10251.9234	-10270.2623	-10299.5980	-10299.9919	-10187.2010	-10164.7698	-10159.4082	-10212.0286	-10322.2590	-10330.8486	-10328.8133	-10333.0698	-10334.9081	-10284.9356	-10199.6860	-10180.5592	-10185.1330	-10222.5877	-10300.9439	-10334.6345	-10229.1858	-10203.4938	-10242.0646	-10332.2601	-10372.9537	-10374.9779	-10377.7025	-10380.7006
-9858.6872	-9910.9137	-9914.5684	-9917.3039	-9921.3853	-9922.8953	-9846.2570	-9780.0356	-9774.4989	-9792.0062	-9842.7993	-9915.0389	-9864.0707	-9795.1904	-9823.8586	-9943.8713	-9961.7944	-9965.7773	-9969.1803	-9973.1413	-9975.2969	-9982.3545	-9984.6742	-9947.9526	-9921.1993	-9843.0838	-9839.9763	-9844.8346	-9856.8161	-9860.6787	-9977.8354	-9983.7332	-10025.0614	-10027.6766	-10031.6704	-10033.3993	-10037.9293	-10041.6387	-10045.5669	-10048.8823	-10052.0336	-10041.6387	-9923.6065	-9900.3109	-9903.6044	-9910.9466	-9986.0311	-10062.0237	-10083.5359	-10085.7790	-10087.3109	-10092.2239	-10097.4542	-10101.4043	-10106.6017	-10111.5257	-10114.3487	-10113.0904	-10067.4620	-9965.6788	-9966.6745	-9971.2045	-9985.1229	-10038.9797	-10141.7149	-10149.0789	-10153.0180	-10155.7535	-10160.6337	-10165.1965	-10168.3697	-10172.3964	-10175.3398	-10135.0511	-10124.7984	-10028.0377	-10045.7857	-10060.3605	-10044.7134	-10051.2458	-10062.0456	-10149.7901	-10205.9667	-10215.6286	-10222.8831	-10226.0673	-10227.0849	-10232.5012	-10234.7553	-10212.4444	-10092.0597	-10096.1740	-10148.8600	-10211.7769	-10164.2993	-10123.1024	-10109.8406	-10113.5390	-10174.8256	-10220.0491	-10290.0565	-10294.4552	-10298.8649	-10295.5932	-10297.0376	-10226.4940	-10147.8643	-10165.0434	-10285.3295	-10325.4322	-10327.5769	-10329.2401	-10257.9197	-10177.7033	-10176.3246	-10189.7615	-10222.8831	-10329.8528	-10347.7978	-10352.2184	-10347.4915	-10247.1308	-10207.8597	-10276.3789	-10336.8120	-10371.5859	-10372.7239	-10377.3633
-9823.0489	-9908.6815	-9913.5945	-9915.8377	-9915.1593	-9814.0436	-9776.1293	-9771.8947	-9780.8891	-9872.8900	-9933.9687	-9947.4603	-9934.4939	-9802.5763	-9800.1690	-9830.0956	-9937.4045	-9963.0746	-9967.3420	-9972.3206	-9976.0409	-9979.7065	-9958.0741	-9858.6325	-9841.9568	-9840.7532	-9867.0579	-9978.9844	-9954.0802	-9856.0611	-9868.7211	-9953.5440	-10010.6507	-10025.9149	-10028.4535	-10031.0905	-10035.9597	-10039.3189	-10042.7000	-10045.8404	-9992.3446	-9912.0189	-9901.4379	-9900.3437	-9897.8051	-9911.4280	-9930.0952	-10055.6445	-10079.9359	-10082.0149	-10084.1814	-10089.1710	-10094.5983	-10097.8153	-10103.3738	-10107.4881	-10110.4862	-10111.5804	-10054.9114	-9961.4552	-9960.4923	-9967.5827	-10012.8282	-10105.0917	-10144.4394	-10146.9342	-10149.0132	-10153.1274	-10157.2745	-10160.9291	-10166.4002	-10168.9387	-10173.1952	-10176.9155	-10147.1968	-10103.7021	-10027.4468	-10030.5981	-10037.5026	-10072.9986	-10168.0415	-10206.2074	-10212.5319	-10215.8583	-10219.3270	-10221.8765	-10224.3275	-10232.1511	-10232.6872	-10238.2020	-10171.6195	-10087.7048	-10092.0269	-10128.5515	-10108.3306	-10106.3173	-10112.6855	-10152.9633	-10265.2618	-10285.3624	-10289.6298	-10292.0370	-10295.0680	-10293.3939	-10293.7221	-10278.6877	-10199.4124	-10152.9195	-10170.0220	-10298.2740	-10296.6874	-10249.2535	-10173.4906	-10171.2037	-10177.3970	-10228.0040	-10331.5926	-10344.9091	-10346.3754	-10349.3297	-10351.2118	-10274.4750	-10213.0900	-10209.7308	-10265.6010	-10357.7223	-10372.8552	-10375.2077
-9767.8133	-9887.5086	-9908.2439	-9903.0464	-9820.2587	-9765.6577	-9793.1114	-9804.1629	-9898.9322	-9937.0653	-9941.6062	-9945.2937	-9948.1605	-9902.6415	-9803.8127	-9801.4821	-9863.6330	-9951.1915	-9966.2368	-9969.2897	-9963.6545	-9963.2934	-9864.6397	-9831.7697	-9841.9677	-9876.1289	-9972.5723	-10001.4594	-10003.8338	-9998.2533	-9883.8868	-9865.1649	-9960.3281	-10023.9125	-10026.2869	-10030.3027	-10032.5239	-10036.1129	-10039.3080	-10016.4719	-9909.4475	-9898.6258	-9923.8801	-9937.5796	-10047.0988	-9934.1985	-9925.7840	-9959.2667	-10039.8551	-10080.7785	-10083.6562	-10089.9370	-10092.7600	-10097.3666	-10101.7106	-10105.6279	-10106.2735	-10007.5213	-9970.0228	-9960.6126	-9960.9299	-9965.2411	-9982.2013	-10045.0635	-10134.4165	-10144.6254	-10149.3087	-10151.2126	-10157.0775	-10159.2331	-10163.7522	-10167.2099	-10171.0943	-10174.0924	-10123.1680	-10035.5658	-10023.8031	-10025.3350	-10043.2253	-10171.6852	-10200.5832	-10204.6974	-10209.2931	-10211.9848	-10214.6656	-10218.4844	-10221.3950	-10226.3737	-10231.2101	-10234.4927	-10236.7796	-10136.1891	-10081.2708	-10082.9669	-10091.0749	-10112.1056	-10151.2235	-10236.7467	-10277.8889	-10282.5940	-10285.9314	-10289.0608	-10291.9604	-10288.6888	-10290.3410	-10293.7987	-10296.3701	-10165.9406	-10148.0613	-10193.6788	-10179.2790	-10166.7941	-10166.3126	-10175.4602	-10278.0531	-10297.8582	-10332.3695	-10340.7402	-10343.6617	-10345.1608	-10349.0233	-10336.5822	-10281.2372	-10221.3184	-10218.4516	-10291.6650	-10369.8023	-10350.7522
-9737.3615	-9754.8470	-9844.2109	-9782.5742	-9761.6201	-9765.3732	-9819.1316	-9864.4646	-9934.0015	-9935.7522	-9939.9321	-9944.4512	-9946.5849	-9949.8784	-9916.6364	-9809.1087	-9806.8765	-9851.5092	-9952.4170	-9963.5670	-9899.2276	-9895.2009	-9826.7473	-9829.8986	-9875.7897	-9945.2937	-9996.2400	-9998.8770	-10002.5864	-10004.5669	-9930.9705	-9860.2519	-9888.1105	-9965.5584	-10023.0262	-10027.7751	-10031.7689	-10034.5044	-9958.7415	-9902.4336	-9893.7128	-9902.3133	-9966.4666	-10034.1105	-10065.0766	-9978.3825	-9916.7568	-9923.1470	-9989.3903	-10080.2423	-10084.3018	-10089.4993	-10091.6439	-10097.1697	-10099.3143	-10064.0480	-10015.2245	-9957.7786	-9958.8619	-9968.2611	-10060.3496	-10051.6397	-9972.2003	-10004.4794	-10061.7393	-10125.5425	-10148.9366	-10150.9500	-10155.8411	-10158.0623	-10162.2859	-10164.7589	-10146.6497	-10129.7661	-10035.9050	-10021.2864	-10023.9016	-10027.3155	-10045.3699	-10071.6965	-10196.4909	-10205.0585	-10208.0238	-10210.8578	-10212.8383	-10216.8869	-10220.9026	-10227.0192	-10228.7590	-10232.3371	-10232.7529	-10111.3944	-10081.9821	-10080.7456	-10087.0154	-10121.8878	-10249.2535	-10268.2818	-10275.0659	-10277.8014	-10284.2025	-10285.5265	-10289.7720	-10286.9818	-10288.1307	-10290.9866	-10295.3087	-10250.1398	-10148.5755	-10144.2315	-10149.5822	-10154.1013	-10202.3996	-10218.5610	-10323.5064	-10328.4413	-10332.2054	-10337.1184	-10340.6636	-10342.9724	-10341.3639	-10347.6446	-10352.8859	-10282.7910	-10203.1327	-10220.4649	-10322.9046	-10242.6117
-9792.8597	-9739.9986	-9745.7103	-9746.0824	-9753.3698	-9800.8803	-9910.1916	-9923.6394	-9931.0143	-9934.1437	-9937.9954	-9940.1181	-9944.6263	-9948.4341	-9950.7100	-9880.9325	-9797.5320	-9802.3356	-9872.8681	-9885.6813	-9845.4801	-9820.3900	-9848.6643	-9866.8500	-9977.9777	-9987.8256	-9992.3337	-9995.6382	-10000.0588	-10001.6782	-10005.4642	-9896.9407	-9857.2538	-9874.6298	-10010.7820	-10024.3392	-10009.9504	-9938.5534	-9888.0448	-9886.8412	-9904.7315	-9989.8717	-10052.9856	-10058.2706	-10063.3477	-10064.0918	-9964.9895	-9920.1707	-9929.7779	-9966.8168	-10073.3160	-10088.7881	-10091.0968	-10096.5241	-10027.6766	-9989.9811	-9958.0412	-9958.8291	-9967.7469	-10077.1676	-10122.5443	-10125.5862	-10045.4246	-9979.1375	-10039.4940	-10092.9898	-10146.7263	-10150.7858	-10153.3135	-10157.3292	-10160.9182	-10162.5157	-10096.7320	-10024.0657	-10019.4919	-10024.0110	-10031.2546	-10086.2604	-10055.8524	-10050.8628	-10119.3274	-10165.8859	-10206.5357	-10210.8031	-10212.3131	-10216.6790	-10220.1148	-10225.1482	-10226.6363	-10230.2800	-10165.1199	-10086.3480	-10079.6295	-10074.7275	-10086.6762	-10115.4648	-10153.2916	-10266.1153	-10274.2452	-10278.0421	-10280.6026	-10283.4366	-10286.9709	-10283.6445	-10287.1459	-10288.6778	-10292.6607	-10264.4083	-10145.9385	-10138.7496	-10142.2948	-10151.8363	-10237.7315	-10319.2171	-10322.7514	-10327.4346	-10330.0279	-10335.7834	-10338.6940	-10341.9548	-10343.0599	-10345.1280	-10350.4786	-10347.0210	-10267.1657	-10201.0537	-10201.9728	-10209.4791
-9839.3854	-9732.9519	-9737.8102	-9771.5664	-9825.3358	-9898.1115	-9918.0151	-9924.4491	-9927.0752	-9932.7103	-9935.0301	-9938.5315	-9941.2233	-9946.8366	-9941.2233	-9949.0140	-9833.4439	-9799.2937	-9803.2328	-9810.9251	-9811.4394	-9818.8253	-9905.1473	-9974.9030	-9982.2013	-9986.4797	-9989.3246	-9993.0996	-9997.3452	-10000.1573	-10002.9366	-9997.0825	-9872.3101	-9859.5954	-9897.0064	-9912.1940	-9943.9807	-9878.8316	-9887.1257	-9910.3557	-10014.6993	-10046.1687	-10052.3510	-10054.9880	-10058.8834	-10061.9253	-10063.8292	-9949.8019	-9918.9999	-9946.9788	-10030.5215	-10078.4587	-10089.5868	-9992.3227	-9996.4479	-9947.0335	-9952.9969	-9965.5803	-10089.9370	-10112.3026	-10121.2094	-10124.5249	-10126.3631	-10005.0046	-9985.3636	-10006.8100	-10098.7563	-10147.7330	-10150.7968	-10154.2435	-10139.1763	-10093.5697	-10024.1970	-10014.5899	-10025.0833	-10055.1084	-10159.0909	-10183.8856	-10133.6068	-10036.4302	-10048.2148	-10106.7440	-10190.5384	-10207.0390	-10209.0414	-10214.1733	-10219.5130	-10220.5197	-10221.5263	-10139.8219	-10082.2994	-10080.0672	-10082.9450	-10170.3940	-10123.8027	-10103.1988	-10115.5633	-10232.6544	-10268.7961	-10275.8428	-10278.5236	-10281.9375	-10286.1064	-10283.9837	-10284.8481	-10287.5508	-10274.9236	-10177.1015	-10140.7191	-10137.1739	-10141.9337	-10154.8125	-10223.1239	-10291.8729	-10321.8214	-10325.6839	-10328.8462	-10334.7549	-10336.8777	-10340.6527	-10342.4253	-10345.8064	-10348.4762	-10351.1571	-10236.5607	-10198.5042	-10198.5917	-10212.8821
-9752.0677	-9744.4410	-9769.7391	-9814.2186	-9882.5191	-9912.0955	-9918.5732	-9922.1403	-9925.3026	-9930.6313	-9933.9468	-9938.4112	-9939.2428	-9943.0506	-9945.4797	-9948.6967	-9918.3106	-9799.0967	-9794.0852	-9796.0986	-9808.9227	-9863.8519	-9945.9612	-9976.6756	-9981.6105	-9985.5277	-9986.9502	-9990.8127	-9994.8613	-9998.0017	-10001.0436	-10001.7439	-9986.4359	-9863.5017	-9865.4166	-9865.3947	-9865.9965	-9874.7502	-9922.0965	-9976.5115	-10043.0502	-10045.8404	-10047.9194	-10053.5108	-10056.1260	-10059.0913	-10062.5818	-10065.6456	-9959.9452	-9922.0090	-9932.5243	-10002.5098	-10056.8044	-9957.5598	-9941.0263	-9957.1659	-9986.4687	-10077.0253	-10111.3725	-10114.5129	-10119.2727	-10122.5443	-10125.2470	-10100.4632	-9981.9387	-9986.4797	-10037.2509	-10074.2023	-10148.2254	-10152.4053	-10085.7462	-10027.6438	-10010.5960	-10035.0187	-10077.5287	-10159.9991	-10174.8693	-10179.4978	-10183.8637	-10109.8515	-10037.4807	-10059.4086	-10119.0866	-10201.9181	-10208.1113	-10212.0067	-10215.5520	-10203.0452	-10103.1222	-10073.5457	-10076.2703	-10128.7266	-10168.2275	-10241.2658	-10239.9528	-10172.6809	-10101.3605	-10165.7218	-10215.0596	-10269.0477	-10277.7467	-10278.3704	-10283.6116	-10285.5484	-10281.5545	-10256.3659	-10138.1368	-10136.3642	-10142.0759	-10188.8971	-10222.7409	-10183.2728	-10162.8221	-10245.9819	-10309.9383	-10325.3775	-10328.0036	-10331.1659	-10334.9956	-10337.9390	-10341.2217	-10343.5742	-10342.3596	-10288.1307	-10207.6737	-10200.6926	-10200.0033	-10202.2792
-9731.5732	-9753.4683	-9828.3886	-9873.3715	-9870.8110	-9907.7296	-9914.6340	-9918.7045	-9923.0157	-9928.4758	-9926.9110	-9931.9444	-9935.3255	-9941.3765	-9944.4731	-9904.6767	-9894.5553	-9793.1442	-9791.2184	-9805.3446	-9802.9045	-9907.2919	-9966.2478	-9974.3340	-9978.2294	-9977.8026	-9979.3892	-9987.8474	-9993.0887	-9995.8680	-9998.0017	-9999.8728	-9993.9641	-9934.1219	-9855.2842	-9854.1025	-9865.2525	-9897.8927	-9960.5251	-10030.6638	-10039.5706	-10042.5250	-10046.3547	-10050.8519	-10054.2986	-10058.1831	-10061.3891	-10064.8359	-10069.3878	-9975.9534	-9916.8881	-9935.6975	-9937.5796	-9926.6922	-9963.6873	-9970.3073	-10093.4931	-10104.7416	-10108.5932	-10113.1451	-10116.0557	-10118.3098	-10123.8683	-10125.9036	-10109.9172	-9988.0772	-9997.8266	-10047.8209	-10107.5428	-10027.6985	-10016.0014	-10047.1316	-10079.1700	-10095.4846	-10161.1042	-10169.2889	-10170.5472	-10178.7975	-10180.9860	-10178.2176	-10085.3851	-10047.6240	-10046.1359	-10147.5798	-10207.3782	-10210.3435	-10181.7847	-10092.2786	-10066.6851	-10071.2041	-10118.3098	-10204.2926	-10237.1297	-10238.6288	-10241.0689	-10226.3737	-10113.2655	-10102.9143	-10143.4437	-10255.7860	-10273.7528	-10279.4099	-10281.3904	-10283.9071	-10228.9341	-10146.8139	-10131.2761	-10149.5603	-10211.3611	-10284.9685	-10299.4011	-10246.7040	-10156.2459	-10174.3769	-10261.3008	-10322.2481	-10326.1763	-10329.9404	-10333.1136	-10336.8558	-10337.5670	-10342.5456	-10273.1182	-10200.9990	-10207.0500	-10235.4446	-10278.6987	-10206.7983
-9741.3444	-9804.1848	-9886.2831	-9889.6861	-9869.3776	-9877.8796	-9907.8718	-9912.9271	-9919.7878	-9922.1841	-9923.3658	-9928.8697	-9933.4325	-9937.4920	-9908.1673	-9813.1025	-9790.8683	-9792.8488	-9826.3425	-9820.6198	-9801.1866	-9835.4134	-9921.3634	-9974.3996	-9974.4762	-9972.8896	-9978.9187	-9988.7885	-9992.2899	-9993.8765	-9996.9184	-9998.6035	-9951.0164	-9868.5898	-9850.3165	-9849.0144	-9858.9498	-9900.7048	-10011.4057	-10031.7799	-10037.0211	-10040.3584	-10044.5383	-10049.5279	-10051.6178	-10056.2792	-10057.7235	-10063.6869	-10065.4486	-10051.2349	-9925.3026	-9915.8158	-9917.2711	-9939.8883	-9973.1851	-10076.3360	-10096.2068	-10102.4328	-10107.0175	-10110.8254	-10115.1256	-10116.7560	-10121.9863	-10122.8726	-10127.1291	-10041.7700	-9994.6425	-9986.7423	-10017.5661	-10000.5731	-10012.7078	-10077.0472	-10154.8125	-10163.5771	-10165.5686	-10167.3959	-10170.4487	-10175.8760	-10179.3665	-10182.5069	-10181.2267	-10053.0731	-10041.3323	-10067.3963	-10139.8656	-10157.3511	-10082.9669	-10062.2645	-10066.6632	-10117.2374	-10200.1783	-10232.1511	-10233.8362	-10235.0288	-10237.3923	-10241.9005	-10181.7847	-10123.0477	-10105.2340	-10191.0745	-10246.4305	-10276.1163	-10259.0686	-10245.4566	-10128.3765	-10133.1253	-10135.0840	-10219.9835	-10248.7830	-10293.3173	-10298.9196	-10285.1326	-10233.4641	-10167.5272	-10166.0281	-10274.8799	-10311.9078	-10328.5726	-10330.6626	-10333.6935	-10324.3380	-10243.9466	-10196.3158	-10193.8101	-10211.4159	-10321.7666	-10357.8645	-10355.1181
-9844.0248	-9878.0875	-9884.4996	-9887.5305	-9879.1489	-9849.3755	-9886.6989	-9912.1611	-9915.1045	-9918.9233	-9921.7464	-9925.6636	-9929.5809	-9930.1937	-9829.5485	-9790.4853	-9788.3735	-9853.6429	-9921.9324	-9926.5171	-9807.0188	-9805.9902	-9840.5234	-9946.1581	-9969.5085	-9973.1960	-9981.2165	-9986.8079	-9990.4845	-9991.9726	-9966.1712	-9940.3588	-9854.6715	-9849.7366	-9850.6667	-9854.5292	-9851.9360	-9879.6303	-9942.5801	-10024.4596	-10033.4759	-10039.3189	-10041.6496	-10047.2082	-10048.6306	-10052.6792	-10055.1302	-10059.2992	-10058.6755	-9951.7167	-9912.9380	-9911.1873	-9915.7282	-9949.8237	-10053.8610	-10094.3029	-10096.2615	-10100.1897	-10104.0194	-10106.2735	-10110.3439	-10114.9177	-10118.0690	-10120.6185	-10124.6890	-10120.6185	-9997.4327	-9976.1504	-9976.5771	-9985.2213	-10015.8263	-10129.1862	-10156.0599	-10161.7170	-10163.5990	-10167.1114	-10171.4554	-10174.4207	-10176.9702	-10181.7191	-10184.1154	-10162.4173	-10056.0165	-10041.5292	-10045.2933	-10068.3264	-10053.0841	-10061.5642	-10111.7883	-10199.2592	-10225.7500	-10227.4569	-10228.5183	-10229.2952	-10233.0483	-10237.7862	-10245.8287	-10161.0386	-10100.0912	-10112.7621	-10162.3407	-10243.5199	-10184.4984	-10119.1742	-10119.3164	-10135.9593	-10206.5576	-10257.8978	-10289.0499	-10292.4091	-10295.9871	-10299.6637	-10291.4024	-10200.4519	-10159.0909	-10173.8189	-10288.7982	-10323.8566	-10329.0322	-10310.7370	-10201.2288	-10184.6515	-10186.6977	-10207.4220	-10296.4905	-10324.9727	-10356.0044	-10357.5582
-9868.6226	-9875.7021	-9878.2079	-9885.7360	-9887.9463	-9876.2055	-9865.2743	-9902.0178	-9909.4366	-9915.2358	-9918.0261	-9922.3154	-9885.8783	-9852.9645	-9794.8840	-9786.4258	-9861.0288	-9903.6482	-9951.0930	-9948.3466	-9949.9441	-9856.1049	-9808.9227	-9876.9058	-9927.0533	-9969.2678	-9978.4920	-9981.6105	-9985.1557	-9984.7508	-9941.8251	-9847.6357	-9845.6662	-9850.0211	-9890.0800	-9978.7436	-9927.8630	-9867.6925	-9895.1462	-9988.3836	-10019.1746	-10036.7038	-10038.5421	-10043.8599	-10045.8076	-10050.3267	-10052.5589	-10047.1425	-9964.6831	-9911.5593	-9909.5679	-9928.9900	-9909.9508	-9932.5790	-10010.7273	-10050.8628	-10094.2481	-10098.3186	-10100.4851	-10104.6322	-10107.4881	-10112.4776	-10115.5086	-10118.5505	-10117.8611	-10088.7333	-10025.9368	-9973.3164	-9972.9115	-10005.4642	-10046.2781	-10136.7909	-10156.0818	-10159.0362	-10161.4872	-10165.4810	-10167.4615	-10172.1338	-10174.2894	-10177.4298	-10181.4346	-10184.0497	-10143.6954	-10033.6947	-10033.5634	-10038.1700	-10062.8772	-10111.0333	-10203.3515	-10218.9002	-10221.7999	-10224.8746	-10226.6582	-10228.3432	-10232.4903	-10238.3662	-10242.5460	-10245.8068	-10175.7009	-10094.4670	-10111.3287	-10121.4392	-10135.0840	-10111.7117	-10140.6425	-10220.4321	-10278.2391	-10281.4670	-10283.8524	-10288.7325	-10292.6717	-10295.7026	-10300.4953	-10254.4729	-10155.4362	-10156.7493	-10206.6342	-10308.3626	-10310.6604	-10198.0118	-10178.5787	-10181.4127	-10205.8573	-10296.3810	-10340.6964	-10348.7936	-10354.9321	-10357.8974
-9868.9399	-9873.5028	-9877.2012	-9881.7641	-9883.8212	-9886.0533	-9862.3090	-9861.6197	-9885.2217	-9903.5059	-9912.2158	-9909.3600	-9824.2963	-9814.5469	-9847.8655	-9896.4264	-9938.9911	-9944.1339	-9943.7728	-9944.5387	-9949.6705	-9904.6330	-9808.0254	-9810.7938	-9885.9439	-9949.3970	-9976.1394	-9974.2683	-9973.3711	-9911.2748	-9835.5666	-9840.2279	-9866.3357	-9925.5980	-9984.5429	-10006.1098	-10005.9675	-9967.7031	-9865.5917	-9888.1214	-10004.6326	-10020.8159	-10034.3294	-10039.7347	-10042.7657	-10046.9565	-10042.9627	-9926.2655	-9918.2887	-9908.4846	-9919.5908	-10019.4263	-10050.2938	-9932.6666	-9933.4325	-9974.3230	-10086.6981	-10094.8937	-10098.4499	-10101.9185	-10105.8467	-10109.7093	-10113.1232	-10116.1651	-10069.7707	-10001.1311	-9972.8677	-9970.4714	-9970.5918	-9980.3193	-10030.1714	-10130.0397	-10151.9129	-10155.4143	-10158.9158	-10162.3735	-10165.3497	-10169.8250	-10171.9478	-10175.1101	-10178.3708	-10182.3756	-10096.1958	-10030.9264	-10030.3355	-10035.0187	-10074.1366	-10157.8872	-10212.8055	-10216.8650	-10219.7209	-10221.6248	-10223.7695	-10226.2424	-10231.9541	-10236.2653	-10240.4452	-10243.1041	-10241.1564	-10164.1461	-10091.5673	-10095.2439	-10099.9490	-10158.1389	-10178.8851	-10275.1972	-10276.6197	-10281.2919	-10282.9551	-10287.7040	-10290.6693	-10294.6522	-10297.0704	-10300.5937	-10273.9389	-10166.3564	-10167.4944	-10193.8867	-10178.7319	-10174.4098	-10177.2438	-10201.0428	-10328.6273	-10324.8851	-10342.9943	-10347.0757	-10350.9382	-10354.9758
-9866.9157	-9872.1350	-9874.6736	-9879.5100	-9883.0880	-9886.3160	-9885.7032	-9815.2910	-9812.1725	-9821.5827	-9892.9031	-9827.0427	-9816.9542	-9850.9949	-9924.5257	-9927.7208	-9932.1851	-9937.2841	-9939.9212	-9943.0615	-9947.8760	-9949.7143	-9847.7561	-9805.3993	-9813.6059	-9884.3245	-9934.9097	-9952.3951	-9868.3491	-9826.4519	-9833.8925	-9853.3694	-9941.5187	-9996.7871	-10001.3062	-10005.5845	-10004.1183	-9999.8947	-9897.7614	-9867.8786	-9913.2772	-9970.2307	-10032.6115	-10035.9050	-10040.1505	-10042.9408	-9930.6095	-9899.2276	-9902.5102	-9935.2927	-10053.7406	-10068.6328	-10070.5039	-9987.5082	-9937.4483	-9935.5553	-9976.5443	-10087.6610	-10096.4366	-10098.8219	-10102.7501	-10106.0765	-10108.8558	-10038.0934	-9969.8806	-9969.1912	-9975.4829	-9993.0340	-10113.7141	-10000.1682	-9983.0658	-10033.3446	-10103.0675	-10154.1013	-10155.9614	-10160.7759	-10163.6756	-10166.9910	-10167.2755	-10172.6809	-10173.3593	-10095.7363	-10031.1452	-10026.6371	-10026.3088	-10037.8965	-10058.8615	-10154.3967	-10209.0086	-10212.9259	-10216.6243	-10218.5720	-10224.3384	-10226.6144	-10230.5535	-10233.2453	-10237.9176	-10239.4494	-10238.1911	-10141.4522	-10085.6477	-10088.4707	-10111.0005	-10162.2750	-10267.1767	-10272.5711	-10274.1905	-10279.1582	-10281.1278	-10286.3581	-10288.5684	-10292.9999	-10296.9172	-10299.9919	-10303.7341	-10302.5305	-10238.6178	-10192.6940	-10168.5995	-10169.8469	-10230.0830	-10284.4104	-10336.0789	-10338.5299	-10342.9396	-10345.1499	-10348.3340	-10349.1547
-9865.0993	-9867.7691	-9872.6384	-9877.1793	-9882.1142	-9885.7141	-9888.9530	-9819.4490	-9769.1264	-9759.7162	-9802.2261	-9797.3460	-9853.0958	-9889.0515	-9923.7050	-9928.3882	-9932.7979	-9934.3188	-9939.5382	-9942.7989	-9947.0882	-9949.0140	-9940.5558	-9863.6112	-9807.4017	-9825.0075	-9895.0696	-9872.3867	-9821.7030	-9826.1564	-9870.5813	-9950.1192	-9992.9136	-9995.3975	-9999.4789	-10004.6545	-10007.6307	-10010.6835	-10007.3790	-9876.6979	-9885.2436	-9895.6495	-10023.0262	-10012.2592	-9978.8968	-9907.1059	-9892.0496	-9903.8342	-9939.5163	-10009.4580	-10064.3435	-10068.8516	-10070.6133	-10071.4339	-10022.2165	-9930.0624	-9941.2670	-10030.1933	-10088.5036	-10096.7867	-10101.7325	-10070.9306	-10066.1161	-9963.9937	-9961.1378	-9986.6985	-10014.1850	-10117.2484	-10131.3965	-10054.1892	-10038.3779	-9990.4626	-10038.7718	-10133.4974	-10154.2326	-10157.6903	-10159.7474	-10164.2665	-10164.0914	-10111.3068	-10099.3472	-10034.2856	-10029.0115	-10051.8038	-10127.6433	-10077.8788	-10057.3187	-10080.8660	-10161.3449	-10212.3569	-10215.6176	-10217.7623	-10222.0625	-10225.1700	-10228.5949	-10231.1116	-10233.8033	-10169.8032	-10134.5150	-10090.5607	-10087.3546	-10084.1924	-10100.7149	-10168.6871	-10226.8442	-10269.7371	-10273.8075	-10277.7686	-10280.2524	-10283.9508	-10286.5988	-10291.4024	-10293.9738	-10297.7597	-10301.4144	-10291.9604	-10230.0940	-10197.6288	-10172.7137	-10198.8106	-10291.7525	-10328.3319	-10332.9385	-10337.1403	-10341.5171	-10342.2830	-10346.8240	-10348.9468
-9861.5540	-9863.9613	-9868.9837	-9872.4523	-9877.7374	-9885.2436	-9886.7318	-9833.8049	-9753.1072	-9741.0162	-9751.4768	-9789.6756	-9867.0251	-9917.1945	-9920.3458	-9926.1123	-9929.7013	-9932.0538	-9935.2817	-9941.2452	-9944.1339	-9947.6791	-9951.0821	-9937.6890	-9861.8167	-9808.7476	-9817.7420	-9813.3870	-9817.9499	-9873.8092	-9916.3191	-9987.0706	-9991.6225	-9994.5221	-9998.0126	-10002.7177	-10006.2629	-10011.2088	-10013.3972	-10013.1455	-9884.9044	-9876.0961	-9921.9215	-10002.4113	-9892.6076	-9885.8783	-9889.7736	-9925.9700	-10045.3918	-10056.3558	-10066.1161	-10073.6989	-10069.5957	-10070.3616	-10073.7865	-9995.2880	-9927.7317	-9938.8379	-10050.9285	-10084.4769	-10095.7144	-10008.9985	-9966.4447	-9953.8285	-9981.9059	-10084.8270	-10105.0917	-10125.3017	-10128.6063	-10131.6372	-10122.7194	-9994.1501	-9987.9240	-10059.5727	-10144.4175	-10156.0161	-10156.9572	-10161.6732	-10150.3153	-10103.0784	-10020.5423	-10024.4924	-10055.0318	-10134.1429	-10188.0545	-10193.5584	-10101.0432	-10062.8882	-10082.9012	-10192.2016	-10209.7527	-10215.4863	-10221.0230	-10222.0953	-10227.2271	-10230.0393	-10207.3454	-10091.6002	-10085.3522	-10089.8932	-10126.0567	-10195.5170	-10104.3696	-10104.0851	-10178.7319	-10245.0518	-10271.1267	-10275.6349	-10278.2500	-10282.0250	-10285.3077	-10290.1878	-10292.0370	-10296.0637	-10296.8953	-10218.5173	-10193.9632	-10175.2304	-10170.5691	-10182.2224	-10279.8476	-10327.6754	-10331.9865	-10335.5646	-10338.3877	-10341.1451	-10346.2550	-10348.0823
-9857.4179	-9860.5255	-9864.8695	-9869.5418	-9871.8943	-9879.3021	-9849.1020	-9768.5027	-9741.7165	-9740.3815	-9739.8126	-9752.9977	-9840.7969	-9914.6450	-9918.1574	-9924.5257	-9927.0861	-9931.1456	-9934.5048	-9938.1595	-9943.3460	-9947.1648	-9950.2724	-9954.0693	-9856.8052	-9803.3422	-9804.7209	-9813.1791	-9851.1044	-9930.3031	-9968.4143	-9981.8074	-9985.8888	-9993.6796	-9995.4741	-9999.7086	-10004.4028	-10009.5127	-10010.8258	-10015.5637	-9950.5021	-9870.5265	-9878.5033	-9869.2901	-9879.5428	-9886.1846	-9940.0634	-10031.7251	-10037.1196	-10054.8567	-10063.6432	-10066.3459	-10066.9039	-10069.3549	-10072.3859	-10057.6031	-9931.9553	-9928.2022	-9967.4295	-10022.9387	-10014.5570	-9946.1910	-9948.5654	-9958.8947	-10002.9694	-10110.7160	-10117.9487	-10123.3322	-10126.1224	-10129.6567	-10132.5454	-10063.0085	-9985.8341	-10015.8482	-10040.5116	-10150.2497	-10157.3620	-10148.9585	-10068.7531	-10012.8282	-10021.6256	-10056.5855	-10131.9983	-10184.1920	-10188.3390	-10189.9584	-10192.8034	-10100.4961	-10078.4697	-10172.2542	-10198.2854	-10213.2979	-10216.6024	-10220.1148	-10220.9245	-10146.1355	-10084.0173	-10079.9687	-10093.0555	-10133.3442	-10235.1930	-10249.7350	-10223.6272	-10107.2692	-10114.1080	-10203.6251	-10236.2653	-10273.5996	-10276.0835	-10281.2482	-10281.3685	-10287.0365	-10285.3514	-10205.9667	-10221.5373	-10176.0183	-10243.8919	-10281.1497	-10222.6643	-10157.5152	-10189.8381	-10313.1990	-10325.7277	-10332.2492	-10336.1008	-10339.5256	-10343.2241	-10345.6532
-9855.3389	-9859.4751	-9862.4951	-9867.5722	-9874.4000	-9868.3272	-9740.6223	-9734.7683	-9734.3196	-9740.9068	-9766.3252	-9752.0896	-9782.0708	-9864.8914	-9912.8067	-9921.3525	-9924.6241	-9926.9220	-9931.2441	-9937.8093	-9939.6257	-9944.2214	-9949.8347	-9892.6842	-9810.3342	-9802.7842	-9801.2851	-9807.2485	-9831.7478	-9911.3733	-9971.5985	-9974.9686	-9977.4415	-9987.0596	-9995.2224	-9998.6254	-10002.5645	-10007.1493	-10009.7644	-10013.5722	-9985.5496	-9871.1831	-9860.6568	-9869.1260	-9881.1294	-9952.4389	-10040.6101	-10044.7900	-10048.4337	-10052.5698	-10056.3448	-10060.7216	-10064.1356	-10066.4006	-10071.5762	-10073.2284	-10067.6480	-9930.0514	-9926.2326	-9929.8654	-9936.5619	-9939.8117	-9964.7487	-10019.0323	-10092.1582	-10112.6746	-10114.7864	-10117.4344	-10122.3802	-10128.2233	-10130.9807	-10134.3618	-10042.2077	-9984.6633	-10025.1490	-10052.5698	-10075.3840	-10018.8792	-10005.1687	-10022.3697	-10059.1022	-10155.2064	-10158.8501	-10181.9160	-10185.8114	-10188.4922	-10191.7967	-10194.1383	-10142.1088	-10103.2206	-10188.2734	-10209.4025	-10214.4249	-10200.0470	-10141.7805	-10083.2842	-10072.2546	-10079.9906	-10139.8547	-10231.4180	-10244.0013	-10250.4900	-10250.4134	-10141.3319	-10109.4248	-10124.0434	-10220.1914	-10269.8903	-10274.7923	-10278.6221	-10281.7187	-10263.9487	-10222.3251	-10145.5446	-10161.9686	-10250.8401	-10298.4710	-10307.0605	-10293.9628	-10201.5570	-10162.7236	-10189.0065	-10289.5532	-10326.1763	-10334.9190	-10336.0898	-10339.4490	-10343.3554
-9854.4855	-9858.0963	-9862.7467	-9867.4846	-9796.9192	-9740.0533	-9727.4918	-9742.7888	-9754.0044	-9886.2394	-9865.5588	-9814.2186	-9751.0282	-9793.3083	-9908.6378	-9915.4219	-9922.9938	-9926.3968	-9930.2812	-9933.7389	-9938.0501	-9939.4835	-9911.5374	-9798.3964	-9797.3131	-9798.8450	-9876.0851	-9803.7361	-9812.4898	-9854.8356	-9951.4541	-9977.9449	-9983.1095	-9984.5320	-9991.5568	-9996.9512	-9999.8290	-10004.7092	-10006.9085	-9990.7361	-9881.6875	-9861.6306	-9859.2343	-9864.3443	-9885.3749	-9959.7701	-10037.0102	-10043.7943	-10047.9194	-10050.2938	-10054.0689	-10058.8505	-10061.7174	-10065.6346	-10069.5957	-10071.3245	-10075.6904	-9993.7562	-9923.2892	-9922.5670	-9932.8416	-9966.1274	-10033.3227	-10097.5964	-10107.3786	-10107.8929	-10111.1099	-10113.6922	-10120.3012	-10126.1115	-10128.6172	-10131.3965	-10134.8979	-10064.8249	-9984.7618	-9992.3227	-10013.2002	-9999.6102	-10004.8076	-10049.4075	-10157.3839	-10171.4773	-10176.4888	-10178.7975	-10183.4041	-10185.9755	-10190.0569	-10192.7596	-10169.8469	-10117.2484	-10111.7226	-10197.4975	-10211.7222	-10139.2201	-10085.3085	-10069.5847	-10080.4830	-10144.8881	-10235.4665	-10241.6926	-10246.9885	-10248.6627	-10248.7174	-10250.5775	-10184.4436	-10104.7963	-10122.7522	-10195.2435	-10270.5796	-10276.2257	-10249.2207	-10199.3139	-10130.3898	-10143.9361	-10193.4052	-10286.1940	-10301.4582	-10304.8502	-10308.5596	-10298.0552	-10207.1375	-10166.5862	-10201.1850	-10297.4315	-10312.9692	-10332.8619	-10336.2758	-10341.0138
-9818.8909	-9857.2319	-9860.3285	-9783.3292	-9753.4026	-9723.7496	-9727.0869	-9785.5614	-9865.2525	-9901.8099	-9901.4598	-9899.4793	-9818.8034	-9755.0877	-9787.1917	-9891.0429	-9922.1950	-9926.4843	-9928.6727	-9931.8021	-9933.1699	-9877.6498	-9793.8226	-9785.6817	-9797.4335	-9883.9196	-9933.2465	-9860.1863	-9817.5669	-9825.9157	-9869.4761	-9979.2360	-9984.4992	-9988.4930	-9991.2285	-9995.6929	-9998.5378	-10001.8314	-9972.2440	-9885.5281	-9862.0027	-9858.3152	-9861.9698	-9866.5327	-9871.5113	-9934.8440	-9974.3449	-10043.2143	-10046.4641	-10048.7620	-10051.9352	-10056.9466	-10059.6055	-10063.0851	-10067.8449	-10069.1689	-10042.7548	-9926.2873	-9921.2540	-9922.4138	-9934.7784	-9978.6342	-10088.0987	-10102.0608	-10104.0741	-10104.7854	-10106.3720	-10109.7859	-10116.6685	-10122.5006	-10125.8598	-10128.5297	-10132.6548	-10082.8903	-9990.9878	-9981.8950	-9984.4554	-10020.9144	-10036.0691	-10155.2611	-10165.7546	-10169.2232	-10171.7727	-10177.2328	-10180.5045	-10183.8747	-10188.4703	-10190.1882	-10195.1340	-10175.3727	-10078.9511	-10087.1030	-10112.1275	-10079.6624	-10066.8711	-10091.9613	-10131.1120	-10229.9955	-10232.6872	-10237.0750	-10241.6707	-10243.8482	-10246.2445	-10250.4790	-10251.4201	-10178.9398	-10107.1817	-10112.8825	-10219.2832	-10203.8877	-10172.2214	-10127.8403	-10127.0962	-10156.8259	-10277.5826	-10290.5599	-10299.6418	-10304.4672	-10307.0824	-10309.5225	-10297.9020	-10177.3204	-10169.7047	-10194.9262	-10315.3437	-10330.4984	-10335.0175	-10282.5393
-9754.1138	-9851.0497	-9759.3551	-9758.0530	-9713.7267	-9730.9276	-9756.9041	-9875.7897	-9887.9244	-9896.9845	-9898.0896	-9898.0130	-9881.8188	-9800.1143	-9759.3879	-9819.9523	-9883.5367	-9922.4467	-9926.1451	-9919.7549	-9807.3251	-9787.0932	-9782.6945	-9795.8031	-9870.9861	-9939.2865	-9958.2054	-9960.4266	-9931.4301	-9816.0241	-9837.4158	-9927.2174	-9980.4615	-9986.2937	-9988.5806	-9993.3951	-9995.7804	-9962.5165	-9885.6923	-9860.2629	-9856.8708	-9877.6498	-9956.4437	-10025.6085	-9907.5655	-9877.7702	-9911.4171	-10023.7046	-10044.5383	-10047.0003	-10051.0160	-10054.1783	-10058.7630	-10060.4919	-10062.9538	-10033.9792	-9925.5980	-9920.5756	-9921.1446	-9923.7816	-9927.9615	-9941.0591	-10004.5341	-10094.0950	-10103.7568	-10105.2449	-10105.4857	-10110.5847	-10115.6180	-10119.5572	-10124.8969	-10128.8579	-10123.7261	-10019.8749	-9989.5325	-9979.5643	-9981.9497	-10025.7508	-10107.4115	-10159.8240	-10164.4087	-10165.5686	-10169.8141	-10180.0668	-10179.1039	-10181.2704	-10185.3628	-10188.2624	-10191.4903	-10193.9414	-10125.5425	-10053.3686	-10051.7273	-10062.2535	-10063.6979	-10171.9040	-10224.3275	-10227.3585	-10230.6739	-10234.5365	-10237.1516	-10240.2701	-10243.3995	-10248.1484	-10250.6979	-10240.2701	-10112.0947	-10103.8662	-10123.0914	-10118.7693	-10118.0581	-10122.4677	-10152.3068	-10235.0836	-10287.7259	-10294.0394	-10298.5913	-10300.9111	-10306.0648	-10308.9754	-10311.6781	-10311.5468	-10188.2953	-10173.0092	-10201.6993	-10316.2628	-10255.1513	-10195.8343
-9704.7213	-9702.5657	-9707.8398	-9709.7547	-9714.4926	-9801.5368	-9868.5351	-9889.8831	-9893.7784	-9895.9231	-9894.0192	-9895.7261	-9898.9650	-9865.0664	-9756.3132	-9767.2443	-9803.2109	-9884.4996	-9904.5345	-9815.5317	-9779.4010	-9785.0471	-9818.8034	-9838.4882	-9948.9046	-9955.0650	-9958.7196	-9961.2363	-9962.6150	-9857.9869	-9822.8301	-9839.8559	-9907.9156	-9982.6828	-9987.7708	-9992.2462	-9941.2342	-9866.4889	-9847.4059	-9854.5402	-9870.2749	-9984.8384	-10013.4628	-10021.8335	-10024.2298	-9929.4824	-9877.5076	-9925.7840	-9979.1704	-10041.0916	-10051.1145	-10053.4670	-10055.9837	-10058.1831	-10020.7502	-9920.1926	-9916.7130	-9923.7816	-9945.7205	-10067.0462	-10062.0785	-9939.0458	-9951.1806	-10030.4230	-10100.9338	-10103.5270	-10105.6279	-10110.2236	-10113.7250	-10117.9049	-10123.1790	-10104.6541	-10024.4158	-9985.7903	-9980.0567	-9989.6310	-9996.0102	-9994.4455	-10056.1041	-10110.4862	-10162.5048	-10164.4853	-10171.3132	-10176.3137	-10177.8565	-10179.6510	-10183.1525	-10187.8685	-10187.3542	-10134.5150	-10058.2925	-10046.0046	-10047.7772	-10055.9728	-10098.0779	-10204.7521	-10221.7342	-10226.7129	-10228.9451	-10231.4946	-10235.9480	-10238.6288	-10242.6555	-10246.5946	-10250.3587	-10253.0395	-10161.9249	-10102.6735	-10101.9295	-10107.6194	-10116.8326	-10156.4319	-10230.2800	-10278.8628	-10288.7544	-10292.1902	-10293.8315	-10299.6637	-10302.3664	-10305.8459	-10308.5815	-10306.2289	-10213.9654	-10164.4197	-10181.8941	-10212.1161	-10181.7738	-10181.0407
-9691.5252	-9691.8097	-9702.2156	-9724.9970	-9782.6179	-9872.5289	-9881.9172	-9888.1980	-9892.6624	-9892.6842	-9889.0843	-9895.0915	-9897.2143	-9901.9631	-9876.1617	-9763.0863	-9776.6326	-9803.9878	-9787.7060	-9775.7463	-9780.8234	-9800.5301	-9909.2505	-9931.1237	-9949.3204	-9953.2924	-9955.8528	-9959.4090	-9962.0023	-9965.6131	-9877.6061	-9820.3681	-9843.2261	-9919.6127	-9985.2104	-9957.8662	-9878.7440	-9843.2698	-9851.7062	-9871.3363	-9982.2889	-10005.8581	-10013.4957	-10020.7721	-10022.8292	-10012.3905	-9883.8540	-9880.3744	-9954.9665	-9997.3123	-10046.5407	-10049.5936	-10049.1340	-10003.9213	-9917.1835	-9910.9247	-9920.5756	-9975.1984	-10061.9581	-10081.8836	-10062.7787	-10033.4212	-9938.6081	-9955.3057	-10023.8031	-10103.5489	-10104.5228	-10109.3920	-10111.6789	-10115.1803	-10090.9546	-10040.5882	-9977.8245	-9979.4220	-10025.2803	-10037.9950	-10134.9636	-10003.8885	-10005.9237	-10056.0384	-10132.4032	-10162.1765	-10167.7460	-10172.1119	-10174.1909	-10177.4845	-10181.2048	-10182.3209	-10144.2753	-10061.5751	-10046.0593	-10045.8732	-10066.1489	-10056.7934	-10079.0606	-10164.9011	-10208.0457	-10225.3451	-10228.0259	-10232.6544	-10234.8647	-10238.1364	-10242.5679	-10245.1284	-10248.4985	-10241.8895	-10149.7682	-10105.2449	-10098.8657	-10103.8881	-10144.6802	-10243.3120	-10278.0640	-10282.4190	-10284.3010	-10288.3933	-10291.9604	-10295.5166	-10299.7950	-10302.1256	-10305.0034	-10307.8374	-10296.2826	-10221.1105	-10159.7036	-10163.6975	-10167.8336	-10178.7428
-9688.9647	-9686.2730	-9700.1694	-9761.6967	-9836.9125	-9875.6037	-9879.8601	-9883.4054	-9888.3293	-9888.8436	-9889.1281	-9891.4368	-9895.6824	-9900.4859	-9898.0787	-9874.5970	-9757.3418	-9764.4103	-9758.3156	-9771.3148	-9805.5635	-9909.9618	-9936.0696	-9938.4878	-9944.8342	-9948.0402	-9951.1149	-9955.4042	-9960.2844	-9964.4095	-9932.0976	-9848.0515	-9815.2800	-9868.4257	-9843.2261	-9861.9589	-9836.2779	-9844.6157	-9901.4379	-9977.2117	-10007.0398	-10011.6027	-10014.0975	-10018.3102	-10020.7393	-10022.8074	-9951.9903	-9877.4419	-9903.4075	-9942.4816	-10003.2101	-10043.8490	-9929.4605	-9908.0688	-9906.7557	-9910.2900	-9980.9649	-10041.6387	-10076.9597	-10079.1043	-10082.4854	-10077.6600	-9956.1264	-9944.1448	-9975.5376	-10050.9832	-10101.3386	-10107.0723	-10108.3087	-10110.0376	-10039.9755	-9978.0652	-9973.9838	-10013.1346	-10065.8097	-10139.9094	-10143.3452	-10105.9015	-10011.7559	-10005.4970	-10055.0865	-10108.9871	-10164.1352	-10169.8797	-10171.8274	-10175.8760	-10178.4474	-10110.7378	-10031.7908	-10038.5092	-10046.2890	-10086.4136	-10163.1613	-10127.1400	-10071.8278	-10114.5895	-10183.0649	-10223.1348	-10225.5311	-10228.7372	-10232.1730	-10235.2039	-10238.6178	-10243.6512	-10244.6032	-10190.0132	-10123.4307	-10097.9575	-10106.0218	-10100.0474	-10120.2465	-10175.8651	-10250.9605	-10278.8300	-10281.2263	-10285.4827	-10291.0851	-10293.9081	-10297.8692	-10301.2831	-10302.5743	-10302.1037	-10288.0104	-10178.0097	-10158.3687	-10157.5152	-10167.9758	-10223.5944
-9684.9709	-9683.2967	-9693.8996	-9736.6394	-9801.9198	-9869.7825	-9876.9167	-9880.6808	-9885.7798	-9888.7670	-9890.1019	-9890.8569	-9893.8222	-9896.5796	-9900.2999	-9843.3136	-9759.6834	-9751.5862	-9761.2700	-9782.8587	-9875.2645	-9915.8377	-9936.0696	-9937.4483	-9943.3132	-9947.2195	-9947.9308	-9953.6425	-9958.4789	-9960.7439	-9963.8734	-9940.4792	-9868.0536	-9815.0721	-9817.9499	-9828.1917	-9835.2602	-9904.6549	-9956.8048	-10001.0436	-10004.0308	-10009.3158	-10011.7777	-10015.3339	-10019.8311	-10022.7308	-10025.8930	-9997.4983	-9878.9519	-9882.8692	-9936.5510	-9931.2222	-9901.5035	-9914.0103	-9971.7188	-10025.9477	-10050.3704	-10071.1494	-10074.2570	-10080.1985	-10084.2690	-10082.8465	-10040.4350	-10009.8191	-9941.0482	-9987.1690	-10068.3373	-10098.6797	-10074.3336	-9973.6337	-9964.1250	-9969.3772	-10021.7241	-10107.5428	-10131.0135	-10137.3709	-10142.5136	-10143.8267	-10086.3261	-9998.7020	-10031.5501	-10062.4286	-10129.4050	-10166.9801	-10172.4621	-10167.8226	-10120.4872	-10027.1185	-10026.6371	-10033.5087	-10057.1873	-10184.0388	-10199.9376	-10180.0230	-10119.3602	-10076.1718	-10104.7744	-10209.9606	-10223.8898	-10226.6691	-10230.8490	-10233.5954	-10236.3091	-10210.1794	-10167.9102	-10093.8652	-10094.6530	-10105.8249	-10189.1925	-10153.7074	-10111.9852	-10118.2660	-10208.4396	-10272.4507	-10278.4142	-10279.2567	-10286.1830	-10292.0152	-10296.3592	-10299.4229	-10302.4101	-10276.5321	-10174.0596	-10155.2940	-10155.3268	-10153.4448	-10159.8787	-10237.5236
-9689.2055	-9752.7133	-9688.5161	-9701.4606	-9780.3748	-9857.2757	-9876.5119	-9879.8711	-9883.9525	-9887.7056	-9891.0429	-9891.1195	-9890.7694	-9885.9330	-9820.7511	-9758.4907	-9753.0306	-9747.9972	-9754.4312	-9773.6892	-9839.3198	-9929.2308	-9934.4064	-9936.7151	-9941.3327	-9943.6852	-9948.5763	-9952.2857	-9955.7653	-9959.1683	-9960.5141	-9934.5595	-9903.2652	-9812.9494	-9815.4770	-9824.7011	-9854.7043	-9978.3060	-9994.2267	-9998.3518	-10002.4879	-10005.6174	-10009.1517	-10013.3534	-10016.3078	-10021.6475	-10024.2298	-10026.0243	-9956.5969	-9875.1550	-9877.3872	-9891.8636	-9893.9426	-9917.5446	-10014.6555	-10061.4000	-10069.8583	-10072.1561	-10077.1129	-10082.9559	-10084.8927	-10087.1030	-10083.2404	-10032.5458	-9935.5334	-9962.4071	-9969.3335	-10047.6896	-9960.6673	-9959.4856	-9980.1114	-9986.2390	-10100.4632	-10129.8318	-10132.1296	-10136.3423	-10138.4213	-10142.0978	-10145.2054	-10023.9344	-10001.9518	-10015.4871	-10104.5446	-10139.1544	-10150.7858	-10093.3728	-10025.3787	-10021.8007	-10052.4823	-10067.1337	-10170.9958	-10194.2149	-10197.3225	-10201.2726	-10203.3187	-10116.3074	-10079.0168	-10095.3424	-10216.7775	-10225.1263	-10228.1682	-10231.1554	-10205.2664	-10164.2446	-10089.2914	-10090.1668	-10103.4723	-10202.6294	-10241.7145	-10258.1604	-10154.5937	-10154.2873	-10137.7867	-10240.2154	-10274.2343	-10276.6525	-10285.6578	-10287.6602	-10293.4376	-10280.9746	-10249.6803	-10162.2531	-10151.2563	-10152.2958	-10178.4474	-10226.4831	-10173.7532	-10173.6985
-9778.6678	-9840.8626	-9809.8746	-9691.0656	-9704.6885	-9792.1813	-9861.2805	-9877.3982	-9880.0461	-9885.5391	-9888.0886	-9885.8564	-9887.1694	-9805.7714	-9756.0834	-9745.3383	-9749.9668	-9783.1979	-9781.3377	-9762.3532	-9814.9627	-9874.1265	-9930.5000	-9932.6228	-9937.9078	-9940.4026	-9944.2323	-9948.8280	-9954.2662	-9957.3081	-9908.4518	-9848.1938	-9811.2533	-9808.9446	-9809.9950	-9821.8781	-9886.6004	-9986.7751	-9992.3884	-9997.7172	-9999.8181	-10003.5384	-10007.4775	-10009.0751	-10015.9029	-10016.4500	-10022.7964	-10025.2037	-10024.4815	-9897.5863	-9872.1241	-9875.6255	-9915.4656	-10023.1137	-10060.2840	-10064.0261	-10066.6304	-10067.0243	-10075.3621	-10080.1548	-10081.9383	-10083.3717	-10081.9055	-10083.7875	-10038.7171	-9934.6580	-9939.6695	-9960.2187	-9947.2305	-9958.9275	-9996.4917	-10072.7798	-10120.7061	-10126.6914	-10129.1096	-10133.2019	-10135.7186	-10139.5155	-10142.4370	-10143.3562	-10030.9154	-9993.9531	-10022.0305	-10106.0875	-10087.2343	-10019.2840	-10017.6865	-10049.6483	-10069.6723	-10179.6948	-10187.0369	-10191.5779	-10196.4690	-10198.2854	-10200.5504	-10186.7524	-10081.7961	-10070.5148	-10129.2847	-10205.5618	-10225.5749	-10228.5402	-10146.3871	-10094.7952	-10084.7942	-10106.2625	-10173.3484	-10251.7812	-10255.6765	-10258.5543	-10252.5143	-10138.6401	-10113.7360	-10123.7370	-10224.2400	-10275.7662	-10281.3904	-10285.5374	-10290.2207	-10237.0312	-10156.5304	-10145.1944	-10156.6289	-10196.8629	-10280.9637	-10315.1467	-10302.4539	-10173.8189
-9833.4110	-9837.6566	-9839.6371	-9813.2229	-9705.9031	-9711.9322	-9795.4968	-9870.2530	-9877.4200	-9881.2060	-9886.0971	-9885.0357	-9809.4370	-9754.7704	-9738.9700	-9749.9887	-9804.0097	-9889.5329	-9880.0352	-9782.0271	-9770.9756	-9795.5296	-9890.5505	-9929.1979	-9932.0538	-9934.7784	-9939.0677	-9946.5958	-9945.1843	-9946.7818	-9852.8660	-9810.8375	-9806.9750	-9809.7324	-9851.6952	-9816.9979	-9830.8615	-9911.1326	-9961.9804	-9994.8722	-9997.1044	-10001.4047	-10003.9213	-10006.7663	-10009.7535	-10014.5133	-10018.3539	-10014.4038	-9916.7130	-9870.5813	-9870.5375	-9878.7769	-9911.7125	-10016.1546	-10059.5946	-10062.5161	-10067.7793	-10065.9301	-10071.9920	-10077.2113	-10078.9840	-10081.9821	-10079.1919	-10083.4264	-10083.8860	-9990.9988	-9931.7037	-9933.2356	-9948.5982	-10017.0409	-10086.3151	-10107.0941	-10109.4686	-10122.1833	-10125.0282	-10130.7400	-10131.6481	-10135.1824	-10139.4280	-10142.2291	-10135.5326	-10002.6739	-9996.1853	-10003.4399	-10006.8866	-10007.2696	-10027.6000	-10121.3407	-10174.4864	-10181.3908	-10186.4351	-10188.4922	-10193.5146	-10195.7796	-10199.3796	-10200.7692	-10164.3978	-10053.5108	-10064.1684	-10103.6036	-10164.5400	-10104.6759	-10082.3103	-10082.6058	-10095.7582	-10213.3307	-10246.3320	-10248.7721	-10251.5404	-10254.8231	-10258.2917	-10232.0854	-10148.2801	-10114.1955	-10136.3861	-10213.6918	-10278.5564	-10280.4494	-10190.0241	-10145.2820	-10139.6359	-10141.3975	-10199.0075	-10277.9437	-10310.0696	-10313.9321	-10315.0920	-10268.0082
-9832.6998	-9836.3982	-9838.6523	-9842.8212	-9754.9017	-9701.2417	-9717.4579	-9787.3668	-9874.4329	-9878.2626	-9839.6152	-9824.1431	-9732.9081	-9736.0047	-9748.6866	-9812.5992	-9898.4835	-9900.0264	-9907.9265	-9904.4579	-9773.5907	-9766.3690	-9802.3027	-9897.5425	-9931.8459	-9929.3949	-9932.5353	-9944.0026	-9923.8691	-9826.7254	-9805.7604	-9804.5240	-9837.8754	-9959.9780	-9972.5504	-9869.1588	-9822.2720	-9853.1834	-9904.7205	-9972.9443	-9996.0868	-9999.5007	-10002.0721	-10004.4575	-10006.2411	-10012.0951	-10006.7663	-9884.7622	-9870.8767	-9871.9928	-9899.3480	-9876.2383	-9885.4844	-9923.9348	-9994.2157	-10062.3848	-10065.3939	-10068.6218	-10070.4163	-10074.3992	-10078.5353	-10080.9426	-10082.3760	-10076.3360	-10049.7030	-9935.9054	-9931.2113	-9935.2489	-9953.4237	-10017.0299	-10106.4923	-10111.2740	-10112.9153	-10119.1742	-10122.8945	-10126.6804	-10130.4226	-10132.9393	-10137.6225	-10139.4498	-10142.6887	-10105.3872	-9992.3446	-9990.2219	-9997.0935	-10018.9448	-10105.5841	-10171.8931	-10176.9155	-10179.5197	-10182.8899	-10185.8005	-10189.4551	-10193.1098	-10196.4471	-10199.4343	-10201.1741	-10182.8789	-10056.5527	-10057.0123	-10067.1993	-10066.9586	-10069.8583	-10109.7312	-10183.6777	-10237.7644	-10242.6117	-10246.5290	-10249.8225	-10253.6413	-10256.7707	-10260.1628	-10221.6576	-10110.3220	-10114.4253	-10141.1459	-10224.1853	-10169.2560	-10140.8067	-10134.2086	-10143.6844	-10195.6812	-10288.0432	-10305.2332	-10308.6252	-10310.6057	-10312.8926	-10316.4816
-9831.8682	-9834.4724	-9837.3502	-9841.6942	-9844.6814	-9770.9099	-9702.0515	-9729.9866	-9799.9611	-9854.9122	-9776.3810	-9725.4018	-9729.7458	-9754.1467	-9794.6652	-9894.5006	-9898.8118	-9902.5868	-9905.2348	-9909.4584	-9861.7182	-9783.8653	-9768.4480	-9844.4954	-9917.8948	-9924.4819	-9923.5846	-9890.5943	-9862.4841	-9815.3128	-9805.3774	-9837.3174	-9902.0178	-9972.4301	-9972.8349	-9942.9959	-9854.1025	-9826.6926	-9847.0777	-9910.8809	-9970.3073	-9996.0868	-9999.5336	-10002.9256	-10007.3024	-9949.3095	-9891.7870	-9864.5959	-9874.2687	-9904.5345	-10026.8231	-10008.7796	-9901.0768	-9893.1766	-9907.7296	-10034.5044	-10062.1113	-10065.6675	-10069.6941	-10073.6771	-10074.2242	-10079.0058	-10061.0061	-9971.4015	-9931.5067	-9932.0319	-9944.4184	-9935.7194	-9939.2975	-9956.9470	-10050.8191	-10102.7064	-10115.5633	-10119.4806	-10121.2860	-10124.0544	-10127.1619	-10131.2652	-10134.5150	-10137.6663	-10127.0962	-10024.4268	-9988.8760	-9988.4055	-9998.4284	-10063.3040	-10158.9048	-10170.2846	-10172.6919	-10176.5763	-10179.4212	-10183.6996	-10187.9670	-10191.0745	-10193.7553	-10197.2240	-10200.4191	-10203.2312	-10074.6837	-10044.1882	-10047.8538	-10059.6712	-10092.6287	-10179.8917	-10229.0764	-10235.6854	-10238.6178	-10243.0713	-10245.9600	-10249.4177	-10253.3349	-10257.2084	-10260.2941	-10211.9301	-10120.9249	-10111.8211	-10135.3356	-10124.5577	-10131.5825	-10134.3946	-10234.4927	-10266.9359	-10305.9991	-10302.6837	-10304.0077	-10306.9839	-10311.2841	-10315.0482
-9829.8220	-9832.8092	-9837.8645	-9842.0662	-9845.7646	-9846.5962	-9752.8227	-9701.0667	-9724.5155	-9723.4542	-9726.7587	-9726.1131	-9752.9102	-9865.7449	-9894.8398	-9891.8417	-9895.8903	-9898.0349	-9901.7662	-9906.1211	-9909.8195	-9864.7382	-9762.0906	-9769.5093	-9866.0622	-9903.1339	-9898.1881	-9806.1106	-9793.3521	-9798.7903	-9842.1100	-9915.1702	-9959.2339	-9969.5195	-9971.2811	-9969.2787	-9954.7586	-9915.6407	-9826.8020	-9857.6040	-9918.2559	-9993.5920	-9996.6230	-9985.1229	-9937.4045	-9880.4182	-9856.9584	-9864.3552	-9919.0984	-10002.4989	-10035.4236	-10027.1623	-9967.7469	-9899.4574	-9901.0877	-9957.6911	-10059.6931	-10064.2997	-10067.5495	-10069.1142	-10074.3773	-10031.4844	-9953.0954	-9930.8174	-9928.0052	-9951.7714	-10029.6243	-10013.1455	-9993.3513	-9945.2718	-9982.0591	-10069.9239	-10113.8126	-10116.2527	-10119.3711	-10123.2009	-10128.2342	-10129.2847	-10133.2457	-10102.5422	-10027.6000	-9988.5258	-9988.0882	-9980.9211	-9989.0620	-10012.4233	-10108.7902	-10164.9011	-10173.3156	-10175.5587	-10178.9288	-10180.5483	-10185.1330	-10188.8205	-10192.8690	-10195.4295	-10197.4428	-10126.3850	-10064.4091	-10046.0921	-10048.4118	-10061.7393	-10141.7805	-10219.3270	-10229.5031	-10233.9346	-10237.7206	-10241.0251	-10243.8482	-10246.9557	-10250.8948	-10254.0133	-10257.9306	-10261.4102	-10194.5541	-10106.2954	-10108.3197	-10109.1184	-10133.7271	-10222.5439	-10296.1294	-10298.8868	-10301.9506	-10304.6751	-10304.1937	-10303.6794	-10307.7061	-10310.3431
-9826.8239	-9831.9229	-9835.5010	-9839.7903	-9843.2589	-9847.0777	-9794.3260	-9724.2420	-9699.0096	-9705.9578	-9719.0992	-9754.9017	-9823.4866	-9889.8940	-9898.4179	-9898.4945	-9893.7019	-9896.6124	-9899.6543	-9902.6634	-9907.1606	-9909.5897	-9870.2858	-9759.9788	-9772.1135	-9801.8432	-9784.7845	-9786.1960	-9788.3078	-9875.6365	-9906.4165	-9959.5294	-9963.6217	-9966.4557	-9968.9395	-9974.9249	-9975.1109	-9937.5686	-9877.9124	-9827.9072	-9875.6255	-9962.8995	-9977.9120	-9931.4192	-9847.9530	-9849.6710	-9868.7758	-9952.5811	-10025.7727	-10028.9787	-10033.3555	-10038.9797	-10038.7609	-9989.8717	-9890.9554	-9892.6514	-9989.5435	-10052.1540	-10064.6936	-10066.7179	-10040.0630	-9945.3813	-9920.4333	-9925.8825	-9953.1501	-10051.2896	-10084.9474	-10087.7267	-10085.7024	-9967.9876	-9946.4645	-9984.1600	-10079.9469	-10113.2545	-10116.8435	-10119.4368	-10123.6495	-10124.6780	-10098.5921	-9993.1215	-9983.2627	-9991.1957	-10029.9088	-10147.6345	-10083.3389	-10001.5360	-10021.1223	-10082.6277	-10164.0367	-10179.3994	-10178.6553	-10178.7428	-10183.1634	-10185.6473	-10189.3019	-10191.9171	-10172.5277	-10067.1993	-10046.4422	-10041.2557	-10040.8946	-10056.1041	-10105.5294	-10200.5613	-10227.6211	-10232.4575	-10235.8057	-10238.6069	-10242.3272	-10246.2116	-10248.3672	-10252.5252	-10254.9981	-10259.3202	-10169.5296	-10106.0765	-10104.7854	-10111.8430	-10146.1355	-10262.6466	-10294.4552	-10297.3877	-10299.9700	-10303.9858	-10307.0386	-10305.8569	-10305.7693	-10309.8507
-9825.1826	-9829.4609	-9832.1199	-9835.9168	-9839.3416	-9842.2303	-9793.4506	-9700.9244	-9695.6613	-9702.0077	-9723.7168	-9821.3638	-9877.2669	-9895.2009	-9902.3789	-9900.8580	-9890.9554	-9893.9207	-9896.8203	-9900.0592	-9903.9217	-9908.7253	-9868.1083	-9851.5311	-9762.2547	-9764.3556	-9765.9532	-9794.5010	-9830.7849	-9941.0810	-9953.0845	-9958.2163	-9960.3391	-9964.9238	-9968.9177	-9972.7911	-9974.7170	-9978.6123	-9929.3839	-9824.6355	-9830.7412	-9879.6194	-9870.2968	-9842.4930	-9848.2157	-9865.4494	-9914.9514	-9998.1002	-10023.4092	-10026.4511	-10030.6309	-10033.6947	-10036.6491	-10031.9002	-9990.2547	-9886.7318	-9928.1366	-9981.6105	-10059.8791	-10004.5560	-9973.2398	-9912.1064	-9930.7079	-9941.8470	-10059.0256	-10079.6514	-10083.3170	-10085.6696	-10088.2519	-10082.1900	-9961.5646	-9961.5318	-9980.0786	-10097.4979	-10113.3311	-10116.0776	-10120.0277	-10049.2434	-9978.1199	-9976.1722	-9984.9697	-9999.8071	-10119.2180	-10147.5689	-10149.6369	-10076.0187	-10007.7401	-10018.2226	-10097.2791	-10170.4597	-10177.5830	-10176.7951	-10179.3337	-10184.4984	-10184.4984	-10160.7212	-10047.4489	-10040.1615	-10048.1383	-10093.5697	-10136.1235	-10105.6936	-10060.8529	-10089.2804	-10218.2546	-10229.7766	-10232.6216	-10235.1164	-10240.1278	-10242.6883	-10247.2293	-10249.5599	-10240.5327	-10184.1263	-10105.1136	-10100.8024	-10103.1659	-10133.9788	-10126.3960	-10203.3297	-10286.0517	-10296.0856	-10299.3792	-10302.4977	-10306.0867	-10308.3736	-10310.8465	-10309.5991
-9821.4404	-9827.3054	-9830.4457	-9833.0718	-9835.8839	-9819.5912	-9704.9073	-9692.7398	-9694.0856	-9704.3384	-9710.4987	-9752.9759	-9857.6258	-9889.9159	-9899.4683	-9896.2295	-9888.2527	-9890.4521	-9895.1900	-9896.9298	-9901.8318	-9905.1035	-9906.2962	-9844.0577	-9758.8627	-9759.2676	-9765.4061	-9816.3742	-9892.0277	-9946.8694	-9951.6182	-9953.9380	-9957.0346	-9963.9500	-9966.3900	-9970.7669	-9974.3777	-9976.9820	-9979.1594	-9953.6644	-9826.0908	-9821.3419	-9826.2877	-9836.1466	-9862.8014	-9978.1199	-10009.7754	-10015.3120	-10018.7260	-10022.5557	-10026.6809	-10030.5106	-10031.0030	-10029.9197	-10032.3598	-9959.5403	-9884.2917	-9896.2185	-9939.6257	-9919.4485	-9904.6986	-9911.1545	-9971.3249	-10064.8687	-10074.7822	-10076.7080	-10079.9687	-10083.5577	-10085.4507	-10089.4118	-10050.5017	-9946.0597	-9947.7666	-10003.5165	-10105.6826	-10098.1654	-10071.7950	-9971.6751	-9970.4933	-9982.8797	-10019.4810	-10114.8411	-10138.8261	-10144.5817	-10149.1773	-10149.6916	-10042.7329	-10004.3262	-10045.6106	-10106.4595	-10173.1514	-10173.9721	-10176.8717	-10168.6652	-10060.1198	-10036.1786	-10037.0430	-10061.9909	-10133.5411	-10185.3518	-10207.5314	-10183.4807	-10061.6298	-10087.6829	-10115.4320	-10220.9136	-10230.5645	-10234.7881	-10237.3704	-10240.2701	-10243.7387	-10217.4012	-10119.2836	-10100.2772	-10103.2535	-10152.1645	-10227.9384	-10193.5256	-10121.3626	-10127.8512	-10223.1567	-10293.3391	-10298.0989	-10300.9658	-10303.4277	-10308.1547	-10310.9012	-10313.7571
-9819.8757	-9824.8434	-9827.5899	-9830.9272	-9810.5530	-9698.4625	-9689.7963	-9695.8254	-9734.3306	-9740.4581	-9716.8780	-9722.4365	-9781.3268	-9886.8412	-9896.7766	-9897.4440	-9887.7275	-9886.7974	-9891.8198	-9894.9055	-9898.9540	-9900.8689	-9810.1810	-9780.3201	-9760.1101	-9756.2694	-9764.2681	-9787.9358	-9891.1086	-9946.2019	-9948.9812	-9953.1392	-9956.3890	-9960.6783	-9965.4490	-9968.3924	-9972.0033	-9975.8878	-9978.0762	-9927.3050	-9822.2392	-9814.7329	-9819.7553	-9842.0334	-9957.7239	-10000.6606	-10010.1255	-10012.1935	-10016.3844	-10021.7679	-10026.0681	-10028.7598	-10029.1209	-10028.7817	-10032.1409	-10030.1385	-9943.2585	-9882.8145	-9886.0533	-9890.3536	-9904.6002	-9990.9988	-10048.8823	-10069.1580	-10071.4120	-10074.6728	-10077.8679	-10080.2314	-10082.5511	-10087.3218	-10078.1414	-10054.4737	-9943.3023	-9967.1560	-9974.7717	-10002.4660	-9969.2897	-9965.0770	-9981.7308	-10050.3157	-10105.8796	-10133.3004	-10139.0450	-10141.4632	-10144.5379	-10148.5099	-10111.5476	-10031.1452	-10004.1621	-10028.3440	-10111.6351	-10165.4044	-10161.8264	-10039.7676	-10028.4206	-10032.8631	-10054.1673	-10171.9806	-10199.2702	-10202.4215	-10206.2074	-10209.0633	-10202.9139	-10078.7542	-10077.9773	-10148.0394	-10225.3670	-10230.3347	-10235.6307	-10237.1078	-10217.4340	-10121.0453	-10099.4237	-10099.1830	-10197.5085	-10221.7014	-10264.6600	-10260.6552	-10130.3570	-10117.0843	-10142.6121	-10213.7575	-10296.9610	-10299.1932	-10301.1080	-10305.3864	-10307.1043	-10310.6495
-9818.1578	-9821.9219	-9825.5218	-9738.8168	-9690.8468	-9685.1131	-9699.5786	-9727.6559	-9848.4017	-9853.8289	-9775.9980	-9709.8969	-9735.8406	-9782.8696	-9883.8321	-9891.7651	-9883.6570	-9886.5239	-9889.3250	-9894.6429	-9851.3341	-9801.8650	-9756.7946	-9756.8165	-9815.9694	-9803.9659	-9764.7167	-9777.8363	-9813.4965	-9919.5580	-9947.0992	-9952.6577	-9955.8309	-9958.0850	-9962.0241	-9966.8715	-9969.3882	-9973.4477	-9951.3447	-9833.1484	-9818.7158	-9817.2934	-9822.3814	-9851.3998	-9866.3576	-9998.2862	-10010.1036	-10011.2306	-10016.2531	-10019.6998	-10023.7374	-10025.4225	-10023.7593	-10027.4140	-10028.5519	-10031.9659	-9936.1899	-9879.2583	-9879.7507	-9887.2460	-9950.9727	-10005.3219	-10061.7721	-10067.1775	-10069.5300	-10072.4187	-10076.8831	-10078.4916	-10079.7171	-10082.7590	-10086.7419	-10086.2823	-10061.0390	-9949.5502	-9948.6420	-9948.7842	-9960.3391	-9969.0052	-10090.5388	-10123.5948	-10126.5929	-10132.0092	-10133.8694	-10137.9398	-10141.9337	-10146.3762	-10150.1184	-10144.4394	-10008.2325	-10009.9942	-10039.2314	-10089.7291	-10042.7000	-10022.2274	-10026.1119	-10043.4332	-10118.9116	-10185.7239	-10196.4690	-10199.8939	-10204.5661	-10206.6232	-10210.0043	-10156.5742	-10062.7350	-10075.8436	-10170.6566	-10190.7572	-10233.1577	-10216.0772	-10109.7531	-10087.0045	-10093.9746	-10164.5619	-10197.0927	-10259.3531	-10262.6357	-10266.2137	-10238.6507	-10118.6271	-10120.6842	-10165.1856	-10263.3907	-10296.3701	-10298.3725	-10299.5980	-10267.5815	-10225.3123
-9815.3785	-9814.2624	-9764.7714	-9678.3728	-9679.1825	-9714.7443	-9799.8955	-9833.9363	-9848.3360	-9852.3518	-9856.1377	-9793.1223	-9717.5892	-9727.2620	-9825.1607	-9877.9234	-9881.9829	-9885.0029	-9888.7013	-9824.3619	-9782.9571	-9750.6452	-9781.7316	-9772.3652	-9890.6600	-9914.8419	-9883.1975	-9777.6502	-9778.0660	-9811.6254	-9938.2580	-9948.6420	-9951.7714	-9957.0127	-9959.3543	-9964.6612	-9966.8934	-9884.6637	-9817.2058	-9814.1749	-9819.2192	-9835.1618	-9920.4114	-9834.0238	-9852.7457	-9948.7842	-10008.1888	-10010.1802	-10013.1236	-10016.8439	-10021.4505	-10025.1927	-10029.0881	-10029.2194	-10028.0267	-9956.3671	-9880.6261	-9879.5319	-9878.9410	-9884.5215	-9928.8587	-10019.8749	-10060.1636	-10063.5775	-10067.4620	-10073.7755	-10075.0339	-10077.9226	-10080.3189	-10082.3103	-10085.0349	-10091.4141	-10037.3494	-9941.5625	-9935.9382	-9945.9612	-9957.2096	-10058.0518	-10118.3645	-10121.5048	-10126.0239	-10127.9935	-10132.8080	-10137.0207	-10139.4389	-10142.1307	-10145.8072	-10150.4576	-10136.1782	-10008.1559	-10002.0502	-10004.7858	-10012.4671	-10037.3056	-10101.7763	-10117.3906	-10187.2339	-10191.0527	-10193.9414	-10197.1036	-10201.7212	-10210.6280	-10212.4663	-10210.3873	-10105.2121	-10063.4790	-10081.5335	-10132.4250	-10146.9889	-10081.8070	-10082.3322	-10086.9170	-10162.5267	-10245.8396	-10252.4596	-10254.4620	-10259.7360	-10264.1785	-10259.7579	-10211.6785	-10133.1472	-10124.8969	-10195.9766	-10266.6952	-10294.7616	-10273.1073	-10193.6022	-10145.3586
-9778.4271	-9724.0122	-9678.3619	-9677.0379	-9701.2746	-9804.7866	-9837.2517	-9844.5501	-9849.3974	-9850.8527	-9855.5687	-9843.1714	-9716.6482	-9712.1510	-9748.6100	-9828.4980	-9879.1927	-9869.6512	-9861.7182	-9756.8275	-9746.8921	-9751.4440	-9785.2221	-9898.3960	-9905.6397	-9908.8676	-9911.2201	-9814.4047	-9801.5149	-9781.3705	-9839.2979	-9940.4245	-9952.3842	-9953.6425	-9957.8552	-9961.8928	-9871.3363	-9836.2450	-9811.4065	-9823.1474	-9890.8241	-9950.3380	-9950.4912	-9855.0326	-9832.4700	-9889.4892	-9910.1259	-10006.3286	-10011.9309	-10016.6141	-10019.7764	-10022.9058	-10024.6456	-10006.1973	-9979.1923	-9878.4814	-9878.6893	-9883.7227	-9906.6682	-9884.3901	-9896.0544	-9962.0789	-10042.3390	-10067.8121	-10071.3354	-10076.6205	-10074.9354	-10075.9530	-10077.9007	-10080.8113	-10070.0115	-10054.7692	-9952.1544	-9937.5796	-9935.6209	-9938.7066	-9987.9678	-10030.0401	-10116.0229	-10120.0386	-10123.5510	-10126.7133	-10130.9916	-10134.8870	-10137.6772	-10140.4784	-10143.4765	-10143.8267	-10144.6802	-10024.4706	-9997.3999	-10000.0150	-10007.9261	-10067.0024	-10127.2604	-10181.5002	-10185.5816	-10187.3542	-10191.2168	-10194.2587	-10202.8373	-10208.9867	-10212.8493	-10211.0876	-10210.1466	-10123.4416	-10060.4153	-10063.2493	-10066.3787	-10074.7275	-10080.1657	-10140.4456	-10220.0820	-10246.4086	-10250.1617	-10253.6304	-10258.3464	-10260.9725	-10265.4259	-10267.6800	-10228.0150	-10124.1528	-10123.9559	-10171.3132	-10239.7558	-10162.7893	-10138.7277	-10139.8985
-9663.0539	-9666.2709	-9669.8599	-9707.0410	-9807.1829	-9834.4068	-9837.1532	-9842.9525	-9845.7209	-9850.0868	-9851.6734	-9855.0326	-9842.2741	-9752.4506	-9716.5935	-9743.7189	-9842.1866	-9826.9552	-9750.1528	-9734.8449	-9744.0034	-9754.0154	-9854.2995	-9903.1449	-9904.9175	-9907.7515	-9912.3909	-9905.4646	-9823.7273	-9784.2592	-9792.3673	-9870.5265	-9895.5073	-9952.1872	-9933.8374	-9871.4785	-9809.5464	-9805.0382	-9812.7086	-9871.8943	-9971.1936	-9975.4063	-9980.3740	-9954.4632	-9836.8250	-9832.9405	-9863.8081	-9970.6246	-9999.3804	-10013.8458	-10018.7697	-10018.8354	-9973.5243	-9926.3311	-9872.0256	-9873.1636	-9915.9799	-9985.6809	-10044.6696	-9984.1490	-9885.4078	-9912.4019	-9953.8832	-10056.7497	-10071.3902	-10075.3621	-10073.3269	-10074.8150	-10076.3469	-10078.6010	-10065.7331	-9965.5584	-9936.9340	-9936.5619	-9974.1261	-9936.1899	-9945.9721	-9996.5683	-10108.2102	-10110.6941	-10121.5814	-10124.7875	-10129.5582	-10131.2652	-10135.2919	-10138.0164	-10142.3604	-10144.1002	-10048.6744	-10052.6136	-9993.4279	-9998.2862	-10009.9833	-10124.6015	-10164.2883	-10178.9945	-10182.4741	-10185.9646	-10189.3785	-10193.1973	-10200.8677	-10205.2774	-10204.5771	-10206.0433	-10208.5928	-10139.9204	-10056.5527	-10053.6202	-10065.4377	-10088.5036	-10196.3596	-10217.6528	-10241.2002	-10245.0956	-10247.3715	-10250.6104	-10254.8121	-10257.2850	-10259.6157	-10261.0163	-10265.6010	-10167.6257	-10122.7194	-10118.3535	-10127.5777	-10130.7400	-10137.1411	-10192.5955
-9652.9982	-9665.7019	-9736.2345	-9784.3249	-9827.5023	-9830.9381	-9834.5052	-9836.9344	-9841.6066	-9846.1257	-9849.4631	-9853.4131	-9857.3413	-9849.2661	-9718.6396	-9710.3346	-9719.4494	-9726.8790	-9725.1502	-9746.9577	-9788.2859	-9893.0234	-9896.9298	-9900.1577	-9904.3704	-9906.9855	-9911.6578	-9915.3234	-9917.1507	-9894.0411	-9782.4757	-9808.6710	-9870.5922	-9907.4779	-9819.4927	-9798.5387	-9798.0025	-9816.8447	-9878.4705	-9965.3615	-9968.8739	-9973.0975	-9976.6209	-9980.8883	-9944.7904	-9891.2180	-9834.9758	-9916.9647	-9985.8013	-10010.8696	-10014.0646	-9990.7799	-9887.0491	-9863.5893	-9868.8196	-9908.1016	-9979.1375	-10037.8527	-10044.9651	-10045.2933	-9970.2854	-9894.8508	-9900.2671	-9988.8432	-10058.3144	-10070.9087	-10067.7355	-10071.3792	-10074.2023	-10024.3283	-9933.0167	-9930.9268	-9936.8355	-9964.8363	-10036.9664	-10065.3392	-9984.8821	-9958.7306	-9988.4383	-10104.8401	-10118.7365	-10121.7784	-10126.8336	-10130.1600	-10132.6767	-10134.8651	-10130.8384	-10122.7413	-10006.4818	-9995.5397	-9991.7209	-9994.2486	-10004.6763	-10059.9666	-10081.3803	-10176.9483	-10180.4826	-10182.9446	-10187.9779	-10190.4727	-10197.8586	-10199.2045	-10201.2178	-10203.0999	-10174.6943	-10075.8108	-10064.7155	-10054.0689	-10059.0803	-10104.2711	-10174.1034	-10232.5450	-10239.0555	-10240.8063	-10247.1417	-10248.8924	-10253.6851	-10255.6218	-10257.3178	-10259.3421	-10266.1700	-10208.1223	-10162.5923	-10114.0314	-10115.9025	-10127.2057	-10155.0204	-10262.7889
-9647.4286	-9661.0187	-9755.7661	-9816.8447	-9825.9814	-9829.7454	-9832.2402	-9834.0019	-9838.4553	-9843.2917	-9847.2528	-9849.9117	-9854.2995	-9856.1487	-9781.8082	-9709.5249	-9709.3498	-9715.4336	-9729.2206	-9796.4815	-9857.8556	-9893.3626	-9895.7808	-9898.6367	-9903.9217	-9906.8980	-9910.7387	-9913.7587	-9916.0237	-9922.8734	-9857.1553	-9777.2126	-9782.5523	-9833.0281	-9786.8853	-9798.8450	-9833.5752	-9922.2169	-9954.1240	-9963.2934	-9965.9414	-9970.7122	-9973.8088	-9977.4196	-9981.1509	-9940.3479	-9849.8679	-9839.6152	-9899.0635	-10000.4089	-9935.2380	-9886.2065	-9860.3723	-9865.6245	-9898.0130	-10020.1156	-10036.0473	-10040.9384	-10041.0150	-10046.3656	-10044.2101	-9966.1384	-9889.6971	-9919.5799	-10018.1679	-10009.4580	-10063.5338	-10065.7112	-9963.1950	-9927.7645	-9925.6418	-9948.1715	-10016.8768	-10086.7091	-10075.1652	-10098.6359	-10078.7761	-9956.6625	-9954.9993	-10016.9533	-10069.6285	-10121.6690	-10122.6209	-10125.5644	-10129.1534	-10130.8822	-10049.7577	-9991.4036	-9990.6377	-10000.9342	-10055.5460	-10152.5913	-10076.8284	-10013.6817	-10025.4772	-10108.7354	-10167.4287	-10182.0692	-10183.7543	-10188.8205	-10191.4794	-10195.7468	-10198.2854	-10199.1607	-10127.9607	-10051.8367	-10052.9418	-10059.7806	-10071.8607	-10070.1428	-10105.9780	-10202.6184	-10236.8343	-10239.6683	-10244.6579	-10246.9666	-10251.1465	-10255.0966	-10257.4163	-10261.0491	-10263.5001	-10248.4110	-10118.0253	-10112.2588	-10112.1165	-10128.5844	-10209.8183	-10291.0523
-9652.7246	-9651.9368	-9683.6031	-9772.9014	-9826.0142	-9826.5175	-9830.0518	-9833.2141	-9836.2013	-9840.4577	-9844.5282	-9844.7251	-9846.1367	-9836.2341	-9758.1733	-9707.0848	-9707.3802	-9713.0701	-9735.7640	-9859.2234	-9886.4035	-9890.8131	-9894.2161	-9898.1115	-9901.0987	-9905.5959	-9908.2657	-9911.1763	-9914.7106	-9919.2625	-9915.8267	-9785.7693	-9772.4309	-9773.0546	-9782.1255	-9799.6876	-9909.2505	-9953.4456	-9957.7239	-9961.3567	-9963.7530	-9966.7292	-9971.8501	-9974.0714	-9978.6233	-9981.2822	-9949.9332	-9832.8749	-9841.5629	-9901.2081	-9864.1145	-9854.0806	-9858.6435	-9910.9247	-10004.0526	-10027.9939	-10032.5677	-10037.9293	-10040.8946	-10043.0611	-10046.5626	-10038.9688	-9898.4617	-9891.7870	-9951.0164	-10007.6416	-10052.4494	-10023.9016	-9920.2473	-9919.1969	-9955.1088	-9989.9811	-10080.7347	-10090.0245	-10092.8257	-10094.6968	-10098.7235	-10009.3814	-9950.9617	-9951.9246	-10006.2192	-10102.4219	-10119.7651	-10123.5838	-10125.0610	-10020.0828	-9983.9630	-9985.8122	-10025.0286	-10092.8585	-10135.8499	-10155.1955	-10156.4101	-10052.9199	-10012.4343	-10045.7091	-10145.7853	-10177.9550	-10181.9707	-10186.9275	-10188.8642	-10192.3985	-10161.9577	-10058.2159	-10053.8828	-10060.6450	-10091.5236	-10174.6067	-10131.7904	-10061.8377	-10097.4542	-10120.7170	-10209.6542	-10236.7577	-10242.0865	-10244.7454	-10249.6146	-10252.4486	-10255.2936	-10258.7184	-10179.1915	-10157.0666	-10110.2783	-10107.7178	-10105.2012	-10119.0866	-10161.9686	-10266.1919
-9722.0645	-9661.0406	-9659.3117	-9722.1302	-9790.8901	-9823.9352	-9829.6798	-9830.4348	-9834.5271	-9837.9082	-9840.6219	-9838.2912	-9805.5088	-9742.8654	-9707.9055	-9704.1195	-9700.1257	-9708.1900	-9722.8961	-9805.1695	-9870.5484	-9888.0995	-9893.1766	-9896.4593	-9899.6325	-9903.4075	-9904.9941	-9909.1521	-9912.6645	-9914.4699	-9903.3637	-9802.2699	-9766.0735	-9769.8704	-9780.6046	-9895.2447	-9931.9991	-9951.7058	-9954.7258	-9956.8485	-9961.2363	-9964.4861	-9968.3706	-9970.8435	-9975.2203	-9978.3716	-9979.1923	-9913.9447	-9831.0147	-9830.2050	-9836.6608	-9849.7475	-9949.2329	-9976.5771	-10024.3830	-10026.7246	-10030.4559	-10032.8194	-10037.9621	-10041.7481	-10043.4113	-10048.6088	-10020.1047	-9903.1230	-9914.0322	-9915.2796	-9933.6295	-9915.9909	-9910.8918	-9940.1072	-9995.5616	-10077.0144	-10084.4331	-10086.2057	-10091.2281	-10091.4251	-10097.6949	-10072.1889	-10008.9656	-9956.0170	-9962.9761	-10026.4182	-10109.0965	-10112.3026	-10047.8975	-9975.8112	-9979.4111	-9999.8071	-10099.6973	-10136.2219	-10147.8971	-10153.0399	-10144.6473	-10113.8454	-10013.3972	-10013.6379	-10084.2471	-10120.7280	-10179.2024	-10180.6358	-10165.9406	-10139.3514	-10046.3547	-10041.7590	-10047.0988	-10104.5228	-10181.1173	-10211.9739	-10214.5015	-10106.5142	-10070.2084	-10075.7451	-10120.8811	-10233.9893	-10236.7249	-10242.7102	-10245.4676	-10250.2712	-10247.0323	-10189.8819	-10108.0352	-10107.8273	-10110.9348	-10172.6809	-10183.4698	-10115.6946	-10124.4373	-10153.7183
-9800.7271	-9741.9244	-9676.0640	-9664.7718	-9731.5622	-9773.4157	-9826.5832	-9829.4609	-9832.3059	-9836.0918	-9838.3787	-9833.1922	-9729.8334	-9692.3240	-9698.7579	-9718.4317	-9810.0825	-9772.4309	-9716.5278	-9728.9252	-9799.5234	-9887.3773	-9891.1305	-9895.4416	-9897.3674	-9900.9455	-9903.6920	-9907.3685	-9910.0493	-9886.3269	-9769.2686	-9771.3148	-9765.0450	-9769.1482	-9784.8064	-9831.6275	-9927.1955	-9946.3551	-9951.4760	-9956.0826	-9959.3433	-9961.3129	-9964.4095	-9966.7730	-9972.2878	-9975.8659	-9946.8803	-9856.1487	-9825.0403	-9828.5965	-9832.7764	-9903.4512	-9961.3786	-10018.1132	-10020.2250	-10023.3326	-10028.2346	-10030.3136	-10034.1762	-10037.2509	-10041.2885	-10046.6064	-10049.8671	-10024.7332	-9904.8518	-9900.1030	-9901.0768	-9905.4208	-9944.4293	-9976.0847	-10071.4011	-10076.2047	-10079.1590	-10083.1638	-10085.7790	-10089.5868	-10092.7272	-10097.1259	-10099.3143	-10017.0299	-9945.6876	-9959.2667	-10017.5114	-9981.6542	-9965.8758	-9972.1127	-10026.2979	-10084.7614	-10138.2790	-10144.1112	-10147.7002	-10149.0242	-10154.1669	-10156.2022	-10117.5657	-10012.8720	-10016.1983	-10067.9325	-10102.7173	-10171.5539	-10158.0514	-10038.4873	-10033.8370	-10044.3961	-10100.6930	-10154.2873	-10208.4834	-10209.7308	-10210.9344	-10206.9077	-10148.3239	-10070.2522	-10095.7253	-10151.1579	-10230.6630	-10240.7078	-10242.9728	-10245.6208	-10205.1460	-10108.1227	-10101.4480	-10130.3679	-10155.1517	-10250.7745	-10273.0744	-10259.9987	-10146.5075	-10135.1715
-9805.6948	-9805.1695	-9786.1413	-9664.1591	-9675.9874	-9734.9433	-9799.8517	-9825.2592	-9831.5618	-9834.0894	-9791.5576	-9708.6276	-9691.6127	-9695.2017	-9737.5257	-9811.8989	-9844.9768	-9860.9194	-9736.0375	-9718.1472	-9734.2212	-9832.1965	-9888.4825	-9891.7213	-9894.5663	-9897.6410	-9899.2057	-9898.3413	-9876.0195	-9765.3076	-9762.8456	-9767.6820	-9795.8688	-9875.3629	-9789.2160	-9801.3726	-9838.1271	-9922.7640	-9948.9593	-9953.2814	-9957.3081	-9959.3105	-9963.0746	-9965.9742	-9968.5894	-9974.1261	-9902.8604	-9830.1831	-9823.4866	-9825.1826	-9830.8287	-9860.0878	-9983.7332	-10004.8952	-10017.1831	-10021.4943	-10024.9192	-10028.5410	-10031.2656	-10034.8655	-10038.7609	-10042.0763	-10046.0483	-10027.2170	-9904.7752	-9896.7328	-9898.1990	-9903.3965	-9995.4631	-10062.2426	-10070.3069	-10073.4254	-10076.5767	-10080.3845	-10083.4046	-10087.4203	-10091.1297	-10095.1454	-10098.1326	-10100.5070	-10013.2549	-9949.3642	-9959.5075	-9957.0236	-9966.8277	-9988.3508	-10076.1281	-10130.9916	-10134.9089	-10140.4346	-10142.8747	-10143.4328	-10150.1840	-10155.0970	-10156.7493	-10156.9462	-10036.5178	-10013.1127	-10058.5770	-10058.5332	-10026.8122	-10027.1185	-10051.1364	-10076.5329	-10182.6601	-10199.9704	-10205.2117	-10206.9515	-10210.5843	-10213.8888	-10217.2480	-10138.8918	-10071.6965	-10122.1504	-10134.5259	-10235.4556	-10240.1716	-10160.2726	-10093.6792	-10097.7277	-10124.6343	-10198.9200	-10250.9714	-10267.0453	-10268.9493	-10273.3699	-10227.8727	-10128.9126



